wavelength_axis,light_level,mean_wavelength,total_power
1250.0,-65.06,1309.626,-27.91453275267728
1250.015,-64.92,,
1250.03,-66.91,,
1250.045,-67.3,,
1250.06,-64.91,,
1250.075,-65.22,,
1250.09,-66.15,,
1250.105,-66.35,,
1250.12,-65.38,,
1250.135,-64.73,,
1250.15,-64.78,,
1250.165,-64.79,,
1250.18,-65.69,,
1250.195,-64.85,,
1250.21,-65.08,,
1250.225,-63.2,,
1250.24,-63.39,,
1250.255,-63.66,,
1250.27,-65.96,,
1250.285,-65.63,,
1250.3,-65.18,,
1250.315,-64.7,,
1250.33,-64.69,,
1250.345,-64.75,,
1250.36,-65.28,,
1250.375,-65.1,,
1250.39,-63.22,,
1250.405,-63.3,,
1250.42,-63.65,,
1250.435,-66.45,,
1250.45,-67.46,,
1250.465,-65.26,,
1250.48,-64.96,,
1250.495,-66.05,,
1250.51,-67.62,,
1250.525,-68.1,,
1250.54,-65.9,,
1250.555,-64.49,,
1250.57,-64.83,,
1250.585,-65.34,,
1250.6,-68.06,,
1250.615,-68.32,,
1250.63,-65.61,,
1250.645,-63.52,,
1250.66,-63.43,,
1250.675,-64.88,,
1250.69,-66.33,,
1250.705,-65.15,,
1250.72,-64.06,,
1250.735,-63.96,,
1250.75,-65.2,,
1250.765,-67.15,,
1250.78,-68.25,,
1250.795,-66.08,,
1250.81,-64.62,,
1250.825,-64.89,,
1250.84,-66.42,,
1250.855,-66.63,,
1250.87,-64.24,,
1250.885,-63.76,,
1250.9,-63.68,,
1250.915,-66.4,,
1250.93,-68.72,,
1250.945,-67.12,,
1250.96,-65.73,,
1250.975,-64.4,,
1250.99,-65.16,,
1251.005,-66.57,,
1251.02,-71.57,,
1251.035,-71.43,,
1251.05,-66.26,,
1251.065,-66.08,,
1251.08,-69.89,,
1251.095,-210.0,,
1251.11,-72.18,,
1251.125,-69.22,,
1251.14,-66.72,,
1251.155,-66.58,,
1251.17,-74.3,,
1251.185,-75.7,,
1251.2,-71.91,,
1251.215,-66.75,,
1251.23,-72.31,,
1251.245,-210.0,,
1251.26,-210.0,,
1251.275,-210.0,,
1251.29,-69.9,,
1251.305,-66.74,,
1251.32,-70.85,,
1251.335,-76.22,,
1251.35,-210.0,,
1251.365,-70.49,,
1251.38,-67.5,,
1251.395,-73.53,,
1251.41,-210.0,,
1251.425,-210.0,,
1251.44,-210.0,,
1251.455,-72.88,,
1251.47,-68.14,,
1251.485,-210.0,,
1251.5,-81.8,,
1251.515,-70.83,,
1251.53,-66.31,,
1251.545,-66.75,,
1251.56,-70.11,,
1251.575,-72.3,,
1251.59,-210.0,,
1251.605,-68.56,,
1251.62,-66.33,,
1251.635,-65.69,,
1251.65,-70.88,,
1251.665,-74.97,,
1251.68,-70.15,,
1251.695,-65.64,,
1251.71,-65.59,,
1251.725,-68.63,,
1251.74,-71.2,,
1251.755,-68.84,,
1251.77,-66.36,,
1251.785,-65.12,,
1251.8,-67.84,,
1251.815,-74.31,,
1251.83,-73.12,,
1251.845,-68.01,,
1251.86,-65.04,,
1251.875,-67.69,,
1251.89,-70.55,,
1251.905,-72.45,,
1251.92,-68.06,,
1251.935,-66.02,,
1251.95,-65.7,,
1251.965,-68.02,,
1251.98,-70.87,,
1251.995,-69.77,,
1252.01,-67.56,,
1252.025,-68.99,,
1252.04,-67.66,,
1252.055,-68.98,,
1252.07,-68.99,,
1252.085,-67.2,,
1252.1,-64.96,,
1252.115,-65.92,,
1252.13,-66.36,,
1252.145,-66.74,,
1252.16,-66.27,,
1252.175,-65.12,,
1252.19,-67.14,,
1252.205,-68.31,,
1252.22,-70.73,,
1252.235,-66.86,,
1252.25,-67.25,,
1252.265,-65.05,,
1252.28,-66.71,,
1252.295,-67.51,,
1252.31,-68.47,,
1252.325,-65.56,,
1252.34,-65.08,,
1252.355,-68.15,,
1252.37,-73.73,,
1252.385,-210.0,,
1252.4,-69.72,,
1252.415,-70.26,,
1252.43,-68.29,,
1252.445,-210.0,,
1252.46,-69.03,,
1252.475,-71.23,,
1252.49,-65.75,,
1252.505,-66.45,,
1252.52,-69.42,,
1252.535,-68.99,,
1252.55,-70.06,,
1252.565,-66.82,,
1252.58,-71.2,,
1252.595,-67.35,,
1252.61,-72.67,,
1252.625,-68.73,,
1252.64,-73.86,,
1252.655,-66.74,,
1252.67,-69.11,,
1252.685,-70.63,,
1252.7,-70.12,,
1252.715,-71.98,,
1252.73,-68.28,,
1252.745,-71.38,,
1252.76,-68.23,,
1252.775,-71.5,,
1252.79,-67.9,,
1252.805,-66.89,,
1252.82,-65.97,,
1252.835,-68.05,,
1252.85,-66.67,,
1252.865,-67.58,,
1252.88,-66.23,,
1252.895,-66.14,,
1252.91,-67.82,,
1252.925,-67.1,,
1252.94,-66.82,,
1252.955,-66.37,,
1252.97,-67.09,,
1252.985,-65.11,,
1253.0,-66.1,,
1253.015,-66.23,,
1253.03,-64.96,,
1253.045,-65.13,,
1253.06,-64.94,,
1253.075,-66.15,,
1253.09,-64.78,,
1253.105,-64.94,,
1253.12,-63.76,,
1253.135,-64.76,,
1253.15,-63.92,,
1253.165,-65.74,,
1253.18,-64.64,,
1253.195,-63.78,,
1253.21,-63.96,,
1253.225,-64.46,,
1253.24,-65.38,,
1253.255,-63.81,,
1253.271,-65.07,,
1253.285,-64.16,,
1253.3,-65.63,,
1253.315,-65.11,,
1253.33,-65.91,,
1253.345,-65.79,,
1253.36,-64.97,,
1253.375,-64.86,,
1253.391,-65.75,,
1253.406,-66.16,,
1253.421,-64.97,,
1253.435,-65.46,,
1253.45,-63.94,,
1253.465,-65.32,,
1253.48,-64.33,,
1253.495,-65.8,,
1253.51,-64.82,,
1253.526,-65.23,,
1253.541,-66.59,,
1253.556,-65.68,,
1253.571,-65.67,,
1253.585,-64.37,,
1253.6,-65.62,,
1253.615,-64.4,,
1253.63,-65.56,,
1253.646,-65.07,,
1253.661,-65.86,,
1253.676,-64.4,,
1253.691,-65.45,,
1253.706,-65.72,,
1253.72,-65.48,,
1253.735,-64.91,,
1253.75,-64.12,,
1253.766,-65.64,,
1253.781,-64.32,,
1253.796,-65.61,,
1253.811,-65.08,,
1253.826,-64.79,,
1253.841,-64.02,,
1253.856,-66.62,,
1253.87,-66.02,,
1253.885,-66.16,,
1253.901,-65.05,,
1253.916,-64.9,,
1253.931,-66.29,,
1253.946,-65.99,,
1253.961,-66.44,,
1253.976,-64.89,,
1253.991,-65.89,,
1254.005,-65.47,,
1254.021,-68.48,,
1254.036,-68.78,,
1254.051,-65.86,,
1254.066,-66.27,,
1254.081,-65.9,,
1254.096,-68.34,,
1254.111,-67.9,,
1254.126,-67.15,,
1254.141,-64.68,,
1254.156,-66.5,,
1254.171,-66.05,,
1254.186,-68.66,,
1254.201,-67.83,,
1254.216,-65.75,,
1254.231,-66.05,,
1254.246,-67.41,,
1254.261,-70.26,,
1254.276,-66.25,,
1254.291,-65.66,,
1254.306,-63.33,,
1254.321,-64.65,,
1254.336,-65.73,,
1254.351,-66.28,,
1254.366,-65.86,,
1254.381,-64.01,,
1254.396,-63.79,,
1254.411,-63.94,,
1254.426,-65.2,,
1254.441,-64.09,,
1254.456,-63.81,,
1254.471,-62.51,,
1254.486,-63.81,,
1254.501,-64.12,,
1254.516,-63.67,,
1254.531,-62.44,,
1254.546,-62.0,,
1254.561,-63.45,,
1254.576,-63.92,,
1254.591,-64.38,,
1254.606,-62.8,,
1254.621,-63.19,,
1254.636,-63.9,,
1254.651,-65.86,,
1254.666,-65.31,,
1254.681,-65.59,,
1254.696,-63.65,,
1254.711,-63.68,,
1254.726,-65.49,,
1254.741,-65.52,,
1254.756,-65.66,,
1254.771,-63.43,,
1254.786,-64.09,,
1254.801,-65.11,,
1254.816,-67.79,,
1254.831,-65.95,,
1254.846,-64.71,,
1254.861,-63.62,,
1254.876,-63.92,,
1254.891,-66.12,,
1254.906,-65.99,,
1254.921,-64.91,,
1254.936,-63.09,,
1254.951,-64.52,,
1254.966,-65.9,,
1254.981,-68.97,,
1254.996,-67.1,,
1255.011,-66.04,,
1255.026,-65.48,,
1255.041,-65.36,,
1255.056,-69.09,,
1255.071,-66.54,,
1255.086,-65.24,,
1255.101,-63.74,,
1255.116,-65.15,,
1255.131,-65.99,,
1255.146,-66.77,,
1255.161,-65.04,,
1255.176,-64.68,,
1255.191,-64.56,,
1255.206,-66.67,,
1255.221,-67.89,,
1255.236,-65.4,,
1255.251,-64.13,,
1255.266,-63.35,,
1255.281,-65.64,,
1255.296,-65.84,,
1255.311,-66.94,,
1255.326,-64.58,,
1255.341,-64.04,,
1255.356,-66.33,,
1255.371,-65.75,,
1255.386,-68.44,,
1255.401,-64.96,,
1255.416,-65.08,,
1255.431,-66.09,,
1255.446,-69.33,,
1255.461,-68.83,,
1255.476,-68.27,,
1255.491,-66.12,,
1255.506,-65.04,,
1255.521,-69.69,,
1255.536,-69.9,,
1255.551,-73.57,,
1255.566,-66.38,,
1255.581,-66.51,,
1255.596,-67.77,,
1255.611,-74.58,,
1255.626,-71.38,,
1255.641,-67.27,,
1255.656,-65.4,,
1255.671,-65.72,,
1255.686,-67.65,,
1255.701,-66.95,,
1255.716,-66.91,,
1255.731,-64.36,,
1255.746,-65.7,,
1255.761,-65.21,,
1255.776,-65.1,,
1255.791,-64.7,,
1255.806,-63.95,,
1255.821,-63.76,,
1255.836,-64.03,,
1255.851,-65.25,,
1255.866,-64.17,,
1255.881,-64.16,,
1255.896,-64.48,,
1255.911,-65.71,,
1255.926,-66.85,,
1255.941,-67.53,,
1255.956,-67.35,,
1255.971,-65.87,,
1255.986,-65.92,,
1256.001,-64.99,,
1256.016,-65.2,,
1256.031,-64.16,,
1256.046,-64.46,,
1256.061,-64.18,,
1256.076,-63.67,,
1256.091,-63.71,,
1256.106,-64.01,,
1256.121,-63.89,,
1256.136,-64.66,,
1256.151,-66.12,,
1256.166,-66.13,,
1256.181,-65.88,,
1256.196,-66.75,,
1256.211,-65.03,,
1256.226,-64.87,,
1256.241,-64.63,,
1256.256,-64.44,,
1256.271,-64.81,,
1256.286,-65.06,,
1256.301,-65.11,,
1256.316,-64.22,,
1256.331,-64.77,,
1256.346,-65.35,,
1256.361,-64.48,,
1256.376,-64.29,,
1256.391,-64.25,,
1256.406,-64.24,,
1256.421,-64.59,,
1256.436,-64.97,,
1256.451,-64.41,,
1256.466,-63.86,,
1256.481,-64.01,,
1256.496,-64.92,,
1256.511,-65.67,,
1256.526,-65.46,,
1256.541,-65.57,,
1256.556,-64.47,,
1256.571,-64.61,,
1256.586,-66.36,,
1256.601,-66.53,,
1256.616,-64.32,,
1256.631,-64.13,,
1256.646,-64.5,,
1256.661,-65.13,,
1256.676,-65.56,,
1256.691,-65.37,,
1256.706,-64.84,,
1256.721,-64.98,,
1256.736,-64.91,,
1256.751,-65.71,,
1256.766,-65.79,,
1256.781,-65.26,,
1256.796,-65.54,,
1256.811,-67.05,,
1256.826,-68.07,,
1256.841,-66.89,,
1256.856,-66.17,,
1256.871,-65.78,,
1256.886,-67.85,,
1256.901,-67.97,,
1256.916,-67.65,,
1256.931,-66.4,,
1256.946,-66.68,,
1256.961,-66.75,,
1256.976,-67.21,,
1256.991,-66.56,,
1257.006,-66.46,,
1257.021,-69.18,,
1257.036,-66.91,,
1257.051,-67.18,,
1257.066,-67.47,,
1257.081,-71.38,,
1257.096,-71.49,,
1257.111,-71.66,,
1257.126,-71.29,,
1257.141,-66.98,,
1257.156,-67.87,,
1257.171,-67.21,,
1257.186,-67.22,,
1257.201,-65.28,,
1257.216,-65.71,,
1257.231,-66.15,,
1257.246,-65.99,,
1257.261,-66.47,,
1257.276,-66.77,,
1257.291,-66.22,,
1257.306,-65.44,,
1257.321,-67.82,,
1257.336,-67.4,,
1257.351,-66.82,,
1257.366,-64.67,,
1257.381,-66.92,,
1257.396,-65.94,,
1257.411,-65.35,,
1257.426,-65.1,,
1257.441,-63.83,,
1257.456,-63.92,,
1257.471,-63.16,,
1257.486,-63.93,,
1257.501,-63.28,,
1257.516,-63.78,,
1257.531,-63.76,,
1257.546,-64.81,,
1257.561,-64.78,,
1257.576,-65.01,,
1257.591,-65.58,,
1257.606,-64.25,,
1257.621,-65.95,,
1257.636,-65.22,,
1257.651,-65.83,,
1257.666,-64.15,,
1257.681,-64.47,,
1257.696,-63.5,,
1257.711,-63.26,,
1257.726,-63.15,,
1257.741,-63.99,,
1257.756,-64.26,,
1257.771,-63.65,,
1257.786,-64.92,,
1257.801,-65.07,,
1257.816,-64.79,,
1257.831,-64.41,,
1257.846,-64.74,,
1257.861,-64.98,,
1257.876,-64.65,,
1257.891,-65.85,,
1257.906,-63.86,,
1257.921,-63.93,,
1257.936,-63.61,,
1257.951,-63.27,,
1257.966,-62.77,,
1257.981,-63.35,,
1257.996,-63.62,,
1258.011,-63.17,,
1258.026,-62.42,,
1258.041,-62.62,,
1258.056,-63.5,,
1258.071,-64.0,,
1258.086,-63.76,,
1258.101,-63.7,,
1258.116,-63.8,,
1258.131,-63.5,,
1258.146,-64.01,,
1258.161,-64.02,,
1258.176,-63.44,,
1258.191,-64.02,,
1258.206,-63.68,,
1258.221,-64.23,,
1258.236,-64.53,,
1258.251,-64.44,,
1258.266,-65.22,,
1258.281,-64.96,,
1258.296,-65.32,,
1258.311,-66.17,,
1258.326,-66.08,,
1258.341,-65.1,,
1258.356,-65.75,,
1258.371,-68.3,,
1258.386,-66.99,,
1258.401,-66.89,,
1258.416,-67.7,,
1258.431,-67.96,,
1258.446,-68.0,,
1258.461,-67.21,,
1258.476,-70.84,,
1258.491,-67.21,,
1258.506,-67.79,,
1258.521,-68.54,,
1258.536,-68.95,,
1258.551,-67.18,,
1258.566,-67.23,,
1258.581,-67.41,,
1258.596,-66.15,,
1258.611,-69.0,,
1258.626,-67.05,,
1258.641,-68.25,,
1258.656,-67.02,,
1258.671,-69.38,,
1258.686,-67.06,,
1258.701,-66.78,,
1258.716,-68.69,,
1258.731,-68.08,,
1258.746,-68.1,,
1258.761,-66.85,,
1258.776,-69.42,,
1258.791,-66.2,,
1258.806,-67.07,,
1258.821,-67.44,,
1258.836,-66.56,,
1258.851,-67.99,,
1258.866,-68.77,,
1258.881,-75.96,,
1258.896,-67.78,,
1258.911,-210.0,,
1258.926,-72.56,,
1258.941,-77.44,,
1258.956,-210.0,,
1258.971,-210.0,,
1258.986,-73.68,,
1259.001,-70.27,,
1259.016,-75.92,,
1259.031,-70.03,,
1259.046,-73.49,,
1259.061,-69.43,,
1259.076,-68.95,,
1259.091,-66.68,,
1259.106,-66.87,,
1259.121,-66.22,,
1259.136,-66.19,,
1259.151,-71.55,,
1259.166,-71.69,,
1259.181,-72.57,,
1259.196,-69.02,,
1259.211,-75.38,,
1259.226,-76.48,,
1259.241,-71.76,,
1259.256,-73.52,,
1259.271,-67.43,,
1259.286,-68.31,,
1259.301,-66.73,,
1259.316,-67.73,,
1259.331,-64.86,,
1259.346,-66.96,,
1259.361,-66.55,,
1259.376,-65.95,,
1259.391,-67.34,,
1259.406,-66.74,,
1259.421,-68.03,,
1259.436,-67.86,,
1259.451,-69.98,,
1259.466,-68.54,,
1259.481,-68.02,,
1259.496,-71.29,,
1259.511,-70.24,,
1259.526,-71.26,,
1259.541,-66.94,,
1259.556,-68.72,,
1259.571,-66.42,,
1259.586,-67.61,,
1259.601,-66.9,,
1259.616,-65.8,,
1259.631,-66.32,,
1259.646,-66.53,,
1259.661,-67.23,,
1259.676,-65.68,,
1259.691,-67.74,,
1259.706,-67.12,,
1259.721,-68.89,,
1259.736,-67.86,,
1259.751,-70.01,,
1259.766,-68.29,,
1259.781,-66.88,,
1259.796,-69.95,,
1259.811,-68.01,,
1259.826,-68.73,,
1259.841,-68.65,,
1259.856,-70.23,,
1259.871,-66.96,,
1259.886,-66.89,,
1259.901,-66.91,,
1259.916,-65.82,,
1259.931,-67.78,,
1259.946,-67.23,,
1259.961,-66.51,,
1259.976,-65.72,,
1259.991,-67.4,,
1260.006,-66.68,,
1260.021,-67.66,,
1260.036,-68.55,,
1260.051,-66.9,,
1260.066,-67.6,,
1260.081,-65.97,,
1260.096,-67.95,,
1260.111,-66.27,,
1260.126,-68.98,,
1260.141,-69.09,,
1260.156,-66.74,,
1260.171,-66.28,,
1260.186,-66.79,,
1260.201,-67.71,,
1260.216,-65.9,,
1260.231,-67.26,,
1260.246,-65.12,,
1260.261,-66.02,,
1260.276,-66.38,,
1260.291,-66.05,,
1260.306,-66.17,,
1260.321,-65.08,,
1260.336,-67.86,,
1260.351,-64.96,,
1260.366,-66.05,,
1260.381,-65.52,,
1260.396,-64.79,,
1260.411,-65.16,,
1260.426,-65.45,,
1260.441,-66.1,,
1260.456,-65.44,,
1260.471,-67.33,,
1260.486,-66.53,,
1260.501,-67.8,,
1260.516,-67.31,,
1260.531,-67.12,,
1260.546,-67.71,,
1260.561,-66.36,,
1260.576,-69.02,,
1260.591,-66.42,,
1260.606,-68.54,,
1260.621,-67.48,,
1260.636,-67.94,,
1260.651,-67.62,,
1260.666,-65.56,,
1260.681,-66.73,,
1260.696,-65.33,,
1260.711,-68.36,,
1260.726,-65.72,,
1260.741,-67.51,,
1260.756,-65.8,,
1260.771,-67.28,,
1260.786,-69.95,,
1260.801,-68.32,,
1260.816,-72.65,,
1260.831,-68.96,,
1260.846,-70.27,,
1260.861,-66.97,,
1260.876,-70.44,,
1260.891,-68.08,,
1260.906,-68.05,,
1260.921,-69.79,,
1260.936,-66.7,,
1260.951,-66.58,,
1260.966,-65.39,,
1260.981,-65.41,,
1260.996,-64.94,,
1261.011,-65.77,,
1261.026,-65.8,,
1261.041,-64.59,,
1261.056,-64.75,,
1261.071,-64.94,,
1261.086,-67.2,,
1261.101,-66.88,,
1261.116,-68.02,,
1261.131,-66.11,,
1261.146,-66.42,,
1261.161,-70.21,,
1261.176,-67.53,,
1261.191,-66.75,,
1261.206,-64.99,,
1261.221,-66.5,,
1261.236,-68.37,,
1261.251,-75.92,,
1261.266,-69.82,,
1261.281,-67.35,,
1261.297,-70.32,,
1261.312,-73.43,,
1261.326,-210.0,,
1261.341,-71.71,,
1261.356,-69.98,,
1261.371,-67.62,,
1261.386,-70.95,,
1261.401,-210.0,,
1261.417,-73.66,,
1261.432,-66.96,,
1261.447,-65.43,,
1261.461,-67.86,,
1261.476,-69.31,,
1261.491,-66.9,,
1261.506,-64.56,,
1261.521,-63.9,,
1261.536,-65.92,,
1261.552,-67.54,,
1261.567,-68.49,,
1261.582,-64.62,,
1261.597,-65.53,,
1261.611,-66.72,,
1261.626,-70.01,,
1261.641,-69.66,,
1261.656,-65.88,,
1261.672,-67.6,,
1261.687,-66.27,,
1261.702,-73.61,,
1261.717,-69.06,,
1261.732,-66.99,,
1261.746,-65.0,,
1261.761,-65.08,,
1261.776,-69.37,,
1261.792,-66.6,,
1261.807,-66.65,,
1261.822,-63.86,,
1261.837,-64.69,,
1261.852,-66.59,,
1261.867,-69.4,,
1261.882,-66.78,,
1261.896,-64.58,,
1261.911,-65.82,,
1261.927,-64.89,,
1261.942,-67.73,,
1261.957,-65.15,,
1261.972,-64.03,,
1261.987,-64.24,,
1262.002,-65.52,,
1262.017,-69.07,,
1262.031,-65.06,,
1262.047,-64.82,,
1262.062,-64.87,,
1262.077,-67.09,,
1262.092,-68.52,,
1262.107,-69.73,,
1262.122,-65.49,,
1262.137,-64.87,,
1262.152,-67.41,,
1262.167,-68.05,,
1262.182,-67.81,,
1262.197,-65.84,,
1262.212,-66.61,,
1262.227,-66.21,,
1262.242,-65.87,,
1262.257,-64.78,,
1262.272,-63.49,,
1262.287,-63.66,,
1262.302,-63.14,,
1262.317,-64.7,,
1262.332,-63.83,,
1262.347,-64.03,,
1262.362,-63.84,,
1262.377,-64.02,,
1262.392,-65.6,,
1262.407,-64.27,,
1262.422,-65.19,,
1262.437,-64.97,,
1262.452,-64.84,,
1262.467,-64.47,,
1262.482,-64.05,,
1262.497,-65.13,,
1262.512,-64.3,,
1262.527,-64.85,,
1262.542,-63.5,,
1262.557,-64.38,,
1262.572,-63.23,,
1262.587,-64.76,,
1262.602,-63.79,,
1262.617,-63.43,,
1262.632,-64.41,,
1262.647,-62.81,,
1262.662,-63.42,,
1262.677,-62.43,,
1262.692,-63.66,,
1262.707,-64.04,,
1262.722,-64.35,,
1262.737,-64.23,,
1262.752,-64.17,,
1262.767,-67.49,,
1262.782,-65.99,,
1262.797,-66.34,,
1262.812,-64.54,,
1262.827,-65.48,,
1262.842,-68.36,,
1262.857,-68.62,,
1262.872,-67.41,,
1262.887,-65.03,,
1262.902,-65.75,,
1262.917,-64.74,,
1262.932,-67.6,,
1262.947,-65.48,,
1262.962,-64.53,,
1262.977,-64.8,,
1262.992,-66.76,,
1263.007,-71.96,,
1263.022,-65.83,,
1263.037,-67.03,,
1263.052,-65.77,,
1263.067,-67.72,,
1263.082,-73.88,,
1263.097,-67.5,,
1263.112,-65.56,,
1263.127,-65.62,,
1263.142,-67.28,,
1263.157,-68.5,,
1263.172,-67.37,,
1263.187,-65.9,,
1263.202,-64.84,,
1263.217,-66.14,,
1263.232,-67.24,,
1263.247,-69.21,,
1263.262,-67.53,,
1263.277,-67.38,,
1263.292,-67.57,,
1263.307,-70.43,,
1263.322,-71.13,,
1263.337,-68.5,,
1263.352,-64.95,,
1263.367,-65.38,,
1263.382,-68.45,,
1263.397,-69.23,,
1263.412,-66.35,,
1263.427,-64.42,,
1263.442,-64.26,,
1263.457,-67.5,,
1263.472,-68.44,,
1263.487,-67.9,,
1263.502,-65.5,,
1263.517,-65.31,,
1263.532,-68.43,,
1263.547,-79.7,,
1263.562,-70.82,,
1263.577,-68.47,,
1263.592,-66.72,,
1263.607,-72.43,,
1263.622,-210.0,,
1263.637,-71.62,,
1263.652,-70.83,,
1263.667,-72.03,,
1263.682,-210.0,,
1263.697,-210.0,,
1263.712,-210.0,,
1263.727,-68.71,,
1263.742,-68.19,,
1263.757,-81.2,,
1263.772,-79.51,,
1263.787,-67.94,,
1263.802,-65.89,,
1263.817,-65.3,,
1263.832,-68.99,,
1263.847,-67.79,,
1263.862,-64.61,,
1263.877,-63.3,,
1263.892,-63.6,,
1263.907,-65.07,,
1263.922,-66.28,,
1263.937,-65.79,,
1263.952,-64.26,,
1263.967,-65.16,,
1263.982,-69.03,,
1263.997,-75.7,,
1264.012,-67.28,,
1264.027,-66.53,,
1264.042,-66.46,,
1264.057,-210.0,,
1264.072,-210.0,,
1264.087,-70.19,,
1264.102,-70.1,,
1264.117,-72.61,,
1264.132,-77.59,,
1264.147,-210.0,,
1264.162,-74.07,,
1264.177,-67.57,,
1264.192,-65.6,,
1264.207,-72.9,,
1264.222,-69.94,,
1264.237,-69.3,,
1264.252,-65.96,,
1264.267,-64.77,,
1264.282,-66.6,,
1264.297,-68.89,,
1264.312,-67.3,,
1264.327,-64.96,,
1264.342,-64.83,,
1264.357,-65.91,,
1264.372,-72.41,,
1264.387,-79.0,,
1264.402,-67.27,,
1264.417,-68.17,,
1264.432,-76.49,,
1264.447,-210.0,,
1264.462,-210.0,,
1264.477,-77.2,,
1264.492,-72.0,,
1264.507,-70.02,,
1264.522,-210.0,,
1264.537,-210.0,,
1264.552,-68.74,,
1264.567,-68.03,,
1264.582,-70.26,,
1264.597,-210.0,,
1264.612,-210.0,,
1264.627,-66.94,,
1264.642,-65.88,,
1264.657,-68.04,,
1264.672,-71.74,,
1264.687,-72.96,,
1264.702,-67.37,,
1264.717,-66.18,,
1264.732,-67.9,,
1264.747,-210.0,,
1264.762,-210.0,,
1264.777,-70.59,,
1264.792,-70.16,,
1264.807,-210.0,,
1264.822,-210.0,,
1264.837,-210.0,,
1264.852,-73.66,,
1264.867,-79.81,,
1264.882,-210.0,,
1264.897,-210.0,,
1264.912,-210.0,,
1264.927,-210.0,,
1264.942,-75.79,,
1264.957,-79.11,,
1264.972,-210.0,,
1264.987,-210.0,,
1265.002,-70.23,,
1265.017,-67.61,,
1265.032,-70.02,,
1265.047,-210.0,,
1265.062,-70.52,,
1265.077,-64.85,,
1265.092,-64.87,,
1265.107,-65.93,,
1265.122,-67.26,,
1265.137,-66.44,,
1265.152,-64.78,,
1265.167,-64.06,,
1265.182,-64.38,,
1265.197,-68.1,,
1265.212,-67.15,,
1265.227,-66.27,,
1265.242,-65.88,,
1265.257,-66.52,,
1265.272,-76.45,,
1265.287,-90.89,,
1265.302,-70.81,,
1265.317,-70.6,,
1265.332,-76.43,,
1265.347,-210.0,,
1265.362,-210.0,,
1265.377,-210.0,,
1265.392,-69.23,,
1265.407,-68.38,,
1265.422,-75.62,,
1265.437,-74.87,,
1265.452,-68.06,,
1265.467,-65.32,,
1265.482,-66.05,,
1265.497,-67.58,,
1265.512,-69.85,,
1265.527,-65.5,,
1265.542,-64.73,,
1265.557,-64.87,,
1265.572,-66.56,,
1265.587,-67.42,,
1265.602,-66.56,,
1265.617,-64.68,,
1265.632,-65.26,,
1265.647,-68.95,,
1265.662,-210.0,,
1265.677,-71.69,,
1265.692,-68.35,,
1265.707,-67.14,,
1265.722,-66.83,,
1265.737,-71.73,,
1265.752,-67.57,,
1265.767,-64.54,,
1265.782,-63.89,,
1265.797,-64.45,,
1265.812,-65.97,,
1265.827,-65.77,,
1265.842,-63.85,,
1265.857,-63.59,,
1265.872,-64.25,,
1265.887,-65.68,,
1265.902,-65.69,,
1265.917,-64.41,,
1265.932,-63.88,,
1265.947,-64.59,,
1265.962,-67.79,,
1265.977,-68.36,,
1265.992,-65.52,,
1266.007,-65.37,,
1266.022,-67.38,,
1266.037,-70.66,,
1266.052,-70.56,,
1266.067,-68.07,,
1266.082,-67.69,,
1266.097,-71.54,,
1266.112,-78.9,,
1266.127,-71.83,,
1266.142,-68.94,,
1266.157,-69.41,,
1266.172,-71.3,,
1266.187,-210.0,,
1266.202,-210.0,,
1266.217,-68.43,,
1266.232,-66.57,,
1266.247,-67.45,,
1266.262,-76.39,,
1266.277,-69.72,,
1266.292,-65.31,,
1266.307,-64.64,,
1266.322,-64.99,,
1266.337,-67.26,,
1266.352,-67.81,,
1266.367,-67.2,,
1266.382,-65.37,,
1266.397,-65.34,,
1266.412,-68.14,,
1266.427,-69.45,,
1266.442,-67.28,,
1266.457,-67.37,,
1266.472,-67.8,,
1266.487,-74.08,,
1266.502,-72.34,,
1266.517,-70.11,,
1266.532,-74.79,,
1266.547,-76.57,,
1266.562,-210.0,,
1266.577,-210.0,,
1266.592,-79.35,,
1266.607,-70.26,,
1266.622,-75.56,,
1266.637,-210.0,,
1266.652,-210.0,,
1266.667,-70.23,,
1266.682,-66.23,,
1266.697,-66.04,,
1266.712,-67.24,,
1266.727,-210.0,,
1266.742,-68.07,,
1266.757,-66.34,,
1266.772,-66.43,,
1266.787,-69.01,,
1266.802,-75.74,,
1266.817,-66.83,,
1266.832,-64.6,,
1266.847,-65.62,,
1266.862,-69.25,,
1266.877,-70.0,,
1266.892,-65.8,,
1266.907,-65.09,,
1266.922,-64.85,,
1266.937,-68.24,,
1266.952,-67.43,,
1266.967,-65.93,,
1266.982,-63.74,,
1266.997,-64.54,,
1267.012,-66.77,,
1267.027,-65.28,,
1267.042,-64.23,,
1267.057,-62.62,,
1267.072,-63.59,,
1267.087,-64.89,,
1267.102,-65.03,,
1267.117,-64.01,,
1267.132,-63.0,,
1267.147,-65.11,,
1267.162,-64.69,,
1267.177,-66.04,,
1267.192,-63.67,,
1267.207,-63.23,,
1267.222,-65.87,,
1267.237,-65.35,,
1267.252,-67.19,,
1267.267,-64.81,,
1267.282,-64.01,,
1267.297,-66.16,,
1267.312,-68.76,,
1267.327,-74.2,,
1267.342,-67.38,,
1267.357,-67.05,,
1267.372,-66.51,,
1267.387,-71.19,,
1267.402,-75.78,,
1267.417,-68.33,,
1267.432,-68.37,,
1267.447,-66.8,,
1267.462,-71.41,,
1267.477,-74.18,,
1267.492,-67.78,,
1267.507,-67.04,,
1267.522,-67.25,,
1267.537,-71.04,,
1267.552,-69.11,,
1267.567,-68.64,,
1267.582,-65.52,,
1267.597,-66.72,,
1267.612,-68.6,,
1267.627,-67.37,,
1267.642,-68.75,,
1267.657,-65.05,,
1267.672,-66.71,,
1267.687,-68.28,,
1267.702,-67.82,,
1267.717,-66.5,,
1267.732,-63.95,,
1267.747,-66.15,,
1267.762,-66.19,,
1267.777,-66.32,,
1267.792,-64.82,,
1267.807,-64.7,,
1267.822,-67.65,,
1267.837,-67.69,,
1267.852,-67.16,,
1267.867,-64.73,,
1267.882,-64.82,,
1267.897,-66.93,,
1267.912,-66.58,,
1267.927,-67.67,,
1267.942,-64.7,,
1267.957,-65.35,,
1267.972,-67.16,,
1267.987,-67.69,,
1268.002,-66.05,,
1268.017,-64.28,,
1268.032,-65.1,,
1268.047,-66.57,,
1268.062,-77.15,,
1268.077,-67.5,,
1268.092,-65.32,,
1268.107,-65.78,,
1268.122,-67.38,,
1268.137,-72.84,,
1268.152,-65.99,,
1268.167,-64.44,,
1268.182,-64.04,,
1268.197,-64.5,,
1268.212,-67.92,,
1268.227,-64.67,,
1268.242,-64.21,,
1268.257,-64.11,,
1268.272,-64.26,,
1268.287,-67.04,,
1268.302,-65.25,,
1268.317,-63.57,,
1268.332,-62.52,,
1268.347,-62.97,,
1268.362,-64.02,,
1268.377,-62.94,,
1268.392,-61.39,,
1268.407,-60.84,,
1268.422,-61.32,,
1268.437,-61.52,,
1268.452,-61.48,,
1268.467,-60.64,,
1268.482,-60.31,,
1268.497,-60.96,,
1268.512,-61.26,,
1268.527,-60.77,,
1268.542,-60.25,,
1268.557,-60.08,,
1268.572,-60.98,,
1268.587,-61.76,,
1268.602,-61.18,,
1268.617,-60.74,,
1268.632,-60.76,,
1268.647,-61.05,,
1268.662,-61.41,,
1268.677,-61.13,,
1268.692,-60.46,,
1268.707,-60.5,,
1268.722,-60.96,,
1268.737,-61.52,,
1268.752,-61.03,,
1268.767,-60.54,,
1268.782,-60.73,,
1268.797,-61.67,,
1268.812,-62.53,,
1268.827,-61.29,,
1268.842,-61.14,,
1268.857,-61.76,,
1268.872,-62.79,,
1268.887,-63.71,,
1268.902,-62.04,,
1268.917,-62.04,,
1268.932,-62.5,,
1268.947,-63.89,,
1268.962,-64.23,,
1268.977,-62.58,,
1268.992,-62.63,,
1269.007,-64.22,,
1269.022,-64.98,,
1269.037,-65.34,,
1269.052,-63.96,,
1269.067,-62.75,,
1269.082,-63.68,,
1269.097,-66.92,,
1269.112,-65.23,,
1269.127,-64.09,,
1269.142,-63.12,,
1269.157,-63.63,,
1269.172,-67.12,,
1269.188,-66.49,,
1269.202,-66.27,,
1269.217,-64.78,,
1269.232,-65.05,,
1269.247,-69.03,,
1269.262,-67.23,,
1269.277,-67.31,,
1269.292,-64.2,,
1269.307,-64.86,,
1269.323,-66.56,,
1269.338,-66.37,,
1269.352,-67.49,,
1269.367,-65.2,,
1269.382,-66.1,,
1269.397,-68.9,,
1269.412,-69.95,,
1269.427,-72.59,,
1269.443,-67.99,,
1269.458,-81.15,,
1269.473,-210.0,,
1269.487,-210.0,,
1269.502,-76.0,,
1269.517,-68.57,,
1269.532,-210.0,,
1269.547,-210.0,,
1269.563,-210.0,,
1269.578,-74.33,,
1269.593,-69.57,,
1269.608,-210.0,,
1269.623,-210.0,,
1269.637,-210.0,,
1269.652,-71.47,,
1269.667,-70.93,,
1269.682,-74.81,,
1269.698,-74.37,,
1269.713,-210.0,,
1269.728,-72.65,,
1269.743,-76.76,,
1269.758,-210.0,,
1269.772,-210.0,,
1269.787,-210.0,,
1269.802,-210.0,,
1269.818,-73.68,,
1269.833,-210.0,,
1269.848,-210.0,,
1269.863,-210.0,,
1269.878,-210.0,,
1269.893,-81.27,,
1269.908,-210.0,,
1269.922,-210.0,,
1269.938,-210.0,,
1269.953,-78.3,,
1269.968,-210.0,,
1269.983,-210.0,,
1269.998,-210.0,,
1270.013,-210.0,,
1270.028,-79.24,,
1270.043,-69.16,,
1270.058,-210.0,,
1270.073,-210.0,,
1270.088,-77.98,,
1270.103,-68.67,,
1270.118,-68.33,,
1270.133,-210.0,,
1270.148,-75.76,,
1270.163,-72.92,,
1270.178,-66.45,,
1270.193,-66.81,,
1270.208,-210.0,,
1270.223,-70.99,,
1270.238,-68.27,,
1270.253,-64.96,,
1270.268,-66.83,,
1270.283,-69.23,,
1270.298,-68.35,,
1270.313,-67.27,,
1270.328,-64.84,,
1270.343,-67.39,,
1270.358,-69.24,,
1270.373,-66.9,,
1270.388,-65.36,,
1270.403,-64.2,,
1270.418,-66.33,,
1270.433,-66.08,,
1270.448,-65.85,,
1270.463,-63.46,,
1270.478,-63.62,,
1270.493,-65.36,,
1270.508,-65.14,,
1270.523,-65.85,,
1270.538,-63.83,,
1270.553,-64.61,,
1270.568,-65.16,,
1270.583,-64.77,,
1270.598,-64.95,,
1270.613,-63.15,,
1270.628,-63.87,,
1270.643,-64.15,,
1270.658,-66.57,,
1270.673,-65.73,,
1270.688,-63.59,,
1270.703,-64.69,,
1270.718,-65.05,,
1270.733,-67.83,,
1270.748,-66.15,,
1270.763,-64.98,,
1270.778,-65.14,,
1270.793,-65.67,,
1270.808,-68.08,,
1270.823,-67.43,,
1270.838,-65.75,,
1270.853,-65.57,,
1270.868,-66.59,,
1270.883,-67.57,,
1270.898,-65.83,,
1270.913,-65.29,,
1270.928,-64.65,,
1270.943,-67.33,,
1270.958,-70.19,,
1270.973,-65.39,,
1270.988,-63.97,,
1271.003,-63.48,,
1271.018,-65.64,,
1271.033,-65.26,,
1271.048,-65.17,,
1271.063,-64.9,,
1271.078,-65.07,,
1271.093,-67.69,,
1271.108,-66.23,,
1271.123,-66.05,,
1271.138,-63.81,,
1271.153,-64.84,,
1271.168,-67.18,,
1271.183,-66.44,,
1271.198,-67.35,,
1271.213,-64.26,,
1271.228,-65.96,,
1271.243,-67.29,,
1271.258,-67.09,,
1271.273,-65.16,,
1271.288,-63.56,,
1271.303,-65.81,,
1271.318,-65.68,,
1271.333,-65.78,,
1271.348,-64.57,,
1271.363,-63.51,,
1271.378,-65.47,,
1271.393,-65.35,,
1271.408,-66.45,,
1271.423,-64.0,,
1271.438,-64.66,,
1271.453,-67.62,,
1271.468,-68.51,,
1271.483,-68.44,,
1271.498,-65.31,,
1271.513,-68.7,,
1271.528,-70.32,,
1271.543,-73.09,,
1271.558,-68.08,,
1271.573,-64.77,,
1271.588,-69.02,,
1271.603,-69.62,,
1271.618,-70.82,,
1271.633,-68.23,,
1271.648,-66.27,,
1271.663,-66.43,,
1271.678,-67.57,,
1271.693,-67.84,,
1271.708,-66.79,,
1271.723,-65.63,,
1271.738,-66.11,,
1271.753,-65.47,,
1271.768,-67.43,,
1271.783,-64.74,,
1271.798,-64.47,,
1271.813,-65.38,,
1271.828,-64.83,,
1271.843,-65.64,,
1271.858,-63.4,,
1271.873,-63.28,,
1271.888,-63.86,,
1271.903,-63.88,,
1271.918,-63.61,,
1271.933,-62.54,,
1271.948,-62.02,,
1271.963,-62.34,,
1271.978,-62.61,,
1271.993,-62.99,,
1272.008,-62.87,,
1272.023,-62.51,,
1272.038,-62.7,,
1272.053,-62.79,,
1272.068,-62.25,,
1272.083,-62.2,,
1272.098,-62.2,,
1272.113,-62.48,,
1272.128,-62.14,,
1272.143,-62.36,,
1272.158,-62.27,,
1272.173,-62.06,,
1272.188,-62.25,,
1272.203,-61.55,,
1272.218,-61.56,,
1272.233,-61.0,,
1272.248,-61.18,,
1272.263,-61.09,,
1272.278,-61.33,,
1272.293,-61.41,,
1272.308,-60.98,,
1272.323,-61.39,,
1272.338,-61.21,,
1272.353,-61.66,,
1272.368,-61.44,,
1272.383,-61.35,,
1272.398,-61.76,,
1272.413,-61.27,,
1272.428,-61.35,,
1272.443,-61.32,,
1272.458,-61.42,,
1272.473,-61.32,,
1272.488,-61.0,,
1272.503,-61.19,,
1272.518,-60.77,,
1272.533,-60.71,,
1272.548,-60.38,,
1272.563,-60.27,,
1272.578,-60.46,,
1272.593,-60.0,,
1272.608,-60.19,,
1272.623,-60.16,,
1272.638,-60.24,,
1272.653,-60.39,,
1272.668,-60.2,,
1272.683,-60.16,,
1272.698,-59.9,,
1272.713,-60.1,,
1272.728,-60.08,,
1272.743,-60.01,,
1272.758,-60.13,,
1272.773,-59.79,,
1272.788,-60.21,,
1272.803,-60.32,,
1272.818,-60.09,,
1272.833,-59.97,,
1272.848,-59.65,,
1272.863,-60.36,,
1272.878,-60.39,,
1272.893,-60.27,,
1272.908,-60.0,,
1272.923,-59.86,,
1272.938,-60.91,,
1272.953,-61.13,,
1272.968,-60.9,,
1272.983,-60.7,,
1272.998,-60.63,,
1273.013,-61.44,,
1273.028,-61.82,,
1273.043,-61.56,,
1273.058,-61.55,,
1273.073,-62.26,,
1273.088,-62.49,,
1273.103,-62.39,,
1273.118,-61.89,,
1273.133,-61.61,,
1273.148,-62.26,,
1273.163,-62.54,,
1273.178,-62.47,,
1273.193,-61.85,,
1273.208,-62.11,,
1273.223,-63.1,,
1273.238,-63.87,,
1273.253,-63.37,,
1273.268,-63.31,,
1273.283,-63.25,,
1273.298,-65.23,,
1273.313,-66.57,,
1273.328,-65.4,,
1273.343,-64.91,,
1273.358,-65.01,,
1273.373,-69.3,,
1273.388,-71.28,,
1273.403,-68.69,,
1273.418,-67.67,,
1273.433,-76.5,,
1273.448,-210.0,,
1273.463,-210.0,,
1273.478,-210.0,,
1273.493,-77.85,,
1273.508,-210.0,,
1273.523,-210.0,,
1273.538,-210.0,,
1273.553,-210.0,,
1273.568,-210.0,,
1273.583,-210.0,,
1273.598,-210.0,,
1273.613,-210.0,,
1273.628,-210.0,,
1273.643,-210.0,,
1273.658,-210.0,,
1273.673,-210.0,,
1273.688,-210.0,,
1273.703,-210.0,,
1273.718,-210.0,,
1273.733,-210.0,,
1273.748,-210.0,,
1273.763,-210.0,,
1273.778,-210.0,,
1273.793,-210.0,,
1273.808,-210.0,,
1273.823,-210.0,,
1273.838,-210.0,,
1273.853,-210.0,,
1273.868,-210.0,,
1273.883,-210.0,,
1273.898,-210.0,,
1273.913,-210.0,,
1273.928,-210.0,,
1273.943,-210.0,,
1273.958,-210.0,,
1273.973,-210.0,,
1273.988,-210.0,,
1274.003,-210.0,,
1274.018,-210.0,,
1274.033,-210.0,,
1274.048,-210.0,,
1274.063,-210.0,,
1274.078,-210.0,,
1274.093,-210.0,,
1274.108,-210.0,,
1274.123,-210.0,,
1274.138,-210.0,,
1274.153,-210.0,,
1274.168,-210.0,,
1274.183,-210.0,,
1274.198,-210.0,,
1274.213,-210.0,,
1274.228,-210.0,,
1274.243,-210.0,,
1274.258,-210.0,,
1274.273,-210.0,,
1274.288,-210.0,,
1274.303,-210.0,,
1274.318,-210.0,,
1274.333,-210.0,,
1274.348,-210.0,,
1274.363,-210.0,,
1274.378,-210.0,,
1274.393,-210.0,,
1274.408,-210.0,,
1274.423,-210.0,,
1274.438,-210.0,,
1274.453,-210.0,,
1274.468,-84.6,,
1274.483,-77.19,,
1274.498,-75.53,,
1274.513,-210.0,,
1274.528,-210.0,,
1274.543,-73.05,,
1274.558,-71.19,,
1274.573,-77.07,,
1274.588,-210.0,,
1274.603,-73.01,,
1274.618,-66.36,,
1274.633,-65.63,,
1274.648,-67.04,,
1274.663,-68.29,,
1274.678,-67.62,,
1274.693,-64.93,,
1274.708,-65.3,,
1274.723,-67.18,,
1274.738,-66.91,,
1274.753,-64.49,,
1274.768,-63.21,,
1274.783,-63.15,,
1274.798,-64.24,,
1274.813,-64.17,,
1274.828,-62.5,,
1274.843,-62.11,,
1274.858,-62.67,,
1274.873,-63.29,,
1274.888,-63.21,,
1274.903,-61.63,,
1274.918,-61.94,,
1274.933,-62.46,,
1274.948,-62.89,,
1274.963,-62.85,,
1274.978,-61.47,,
1274.993,-62.11,,
1275.008,-62.24,,
1275.023,-62.14,,
1275.038,-61.51,,
1275.053,-61.06,,
1275.068,-61.12,,
1275.083,-61.04,,
1275.098,-60.83,,
1275.113,-60.81,,
1275.128,-60.48,,
1275.143,-60.62,,
1275.158,-60.81,,
1275.173,-60.53,,
1275.188,-60.65,,
1275.203,-60.56,,
1275.218,-60.76,,
1275.233,-61.21,,
1275.248,-60.74,,
1275.263,-60.93,,
1275.278,-61.09,,
1275.293,-61.27,,
1275.308,-61.42,,
1275.323,-61.18,,
1275.338,-60.94,,
1275.353,-61.66,,
1275.368,-61.93,,
1275.383,-61.98,,
1275.398,-61.6,,
1275.413,-61.2,,
1275.428,-62.16,,
1275.443,-62.22,,
1275.458,-62.2,,
1275.473,-62.0,,
1275.488,-61.54,,
1275.503,-62.53,,
1275.518,-62.3,,
1275.533,-62.67,,
1275.548,-62.42,,
1275.563,-62.52,,
1275.578,-63.83,,
1275.593,-64.06,,
1275.608,-64.3,,
1275.623,-64.17,,
1275.638,-65.15,,
1275.653,-68.75,,
1275.668,-68.04,,
1275.683,-67.18,,
1275.698,-66.42,,
1275.713,-67.35,,
1275.728,-66.61,,
1275.743,-65.94,,
1275.758,-66.28,,
1275.773,-65.84,,
1275.788,-67.02,,
1275.803,-66.43,,
1275.818,-67.1,,
1275.833,-66.94,,
1275.848,-66.49,,
1275.863,-67.38,,
1275.878,-65.53,,
1275.893,-65.41,,
1275.908,-65.59,,
1275.923,-65.3,,
1275.938,-67.6,,
1275.953,-66.46,,
1275.968,-68.04,,
1275.983,-67.86,,
1275.998,-66.71,,
1276.013,-70.72,,
1276.028,-69.07,,
1276.043,-70.49,,
1276.058,-68.88,,
1276.073,-69.95,,
1276.088,-210.0,,
1276.103,-81.37,,
1276.118,-210.0,,
1276.133,-74.75,,
1276.148,-210.0,,
1276.163,-210.0,,
1276.178,-210.0,,
1276.193,-210.0,,
1276.208,-210.0,,
1276.223,-210.0,,
1276.238,-210.0,,
1276.253,-210.0,,
1276.268,-210.0,,
1276.283,-210.0,,
1276.298,-210.0,,
1276.313,-210.0,,
1276.328,-210.0,,
1276.343,-210.0,,
1276.358,-210.0,,
1276.373,-210.0,,
1276.388,-210.0,,
1276.403,-210.0,,
1276.418,-210.0,,
1276.433,-210.0,,
1276.448,-210.0,,
1276.463,-210.0,,
1276.478,-210.0,,
1276.493,-210.0,,
1276.508,-210.0,,
1276.523,-210.0,,
1276.538,-210.0,,
1276.553,-210.0,,
1276.568,-210.0,,
1276.583,-210.0,,
1276.598,-210.0,,
1276.613,-210.0,,
1276.628,-210.0,,
1276.643,-210.0,,
1276.658,-210.0,,
1276.673,-210.0,,
1276.688,-210.0,,
1276.703,-210.0,,
1276.718,-210.0,,
1276.733,-210.0,,
1276.748,-210.0,,
1276.763,-210.0,,
1276.778,-210.0,,
1276.793,-210.0,,
1276.808,-210.0,,
1276.823,-210.0,,
1276.838,-210.0,,
1276.853,-210.0,,
1276.868,-210.0,,
1276.883,-210.0,,
1276.898,-210.0,,
1276.913,-210.0,,
1276.928,-210.0,,
1276.943,-210.0,,
1276.958,-210.0,,
1276.973,-210.0,,
1276.988,-210.0,,
1277.003,-210.0,,
1277.018,-210.0,,
1277.033,-210.0,,
1277.048,-74.03,,
1277.063,-210.0,,
1277.078,-210.0,,
1277.093,-210.0,,
1277.108,-210.0,,
1277.123,-77.26,,
1277.138,-210.0,,
1277.153,-210.0,,
1277.168,-210.0,,
1277.183,-210.0,,
1277.198,-72.77,,
1277.214,-210.0,,
1277.228,-210.0,,
1277.243,-210.0,,
1277.258,-72.36,,
1277.273,-67.93,,
1277.288,-76.45,,
1277.303,-75.87,,
1277.318,-70.79,,
1277.333,-66.17,,
1277.349,-66.39,,
1277.364,-73.08,,
1277.378,-71.1,,
1277.393,-66.85,,
1277.408,-65.66,,
1277.423,-65.94,,
1277.438,-66.33,,
1277.453,-66.85,,
1277.469,-64.45,,
1277.484,-64.19,,
1277.499,-64.62,,
1277.514,-65.64,,
1277.528,-64.91,,
1277.543,-63.22,,
1277.558,-63.22,,
1277.573,-63.35,,
1277.589,-64.06,,
1277.604,-63.1,,
1277.619,-62.75,,
1277.634,-63.06,,
1277.649,-62.7,,
1277.663,-64.0,,
1277.678,-62.47,,
1277.693,-62.4,,
1277.708,-62.4,,
1277.724,-64.05,,
1277.739,-64.51,,
1277.754,-63.16,,
1277.769,-63.26,,
1277.784,-64.11,,
1277.799,-65.83,,
1277.813,-67.13,,
1277.828,-65.2,,
1277.844,-64.91,,
1277.859,-67.7,,
1277.874,-72.07,,
1277.889,-68.16,,
1277.904,-66.32,,
1277.919,-66.43,,
1277.934,-68.97,,
1277.948,-68.44,,
1277.964,-66.45,,
1277.979,-64.86,,
1277.994,-66.72,,
1278.009,-67.38,,
1278.024,-66.75,,
1278.039,-64.07,,
1278.054,-64.21,,
1278.069,-65.67,,
1278.084,-66.66,,
1278.099,-65.17,,
1278.114,-63.82,,
1278.129,-64.15,,
1278.144,-67.01,,
1278.159,-66.55,,
1278.174,-64.74,,
1278.189,-63.76,,
1278.204,-64.74,,
1278.219,-66.51,,
1278.234,-64.55,,
1278.249,-63.34,,
1278.264,-63.49,,
1278.279,-63.98,,
1278.294,-65.23,,
1278.309,-63.48,,
1278.324,-63.24,,
1278.339,-64.88,,
1278.354,-67.65,,
1278.369,-68.05,,
1278.384,-64.54,,
1278.399,-64.47,,
1278.414,-65.56,,
1278.429,-67.16,,
1278.444,-71.52,,
1278.459,-66.11,,
1278.474,-65.96,,
1278.489,-67.89,,
1278.504,-70.96,,
1278.519,-77.12,,
1278.534,-68.04,,
1278.549,-68.79,,
1278.564,-210.0,,
1278.579,-210.0,,
1278.594,-73.05,,
1278.609,-67.61,,
1278.624,-69.47,,
1278.639,-84.36,,
1278.654,-210.0,,
1278.669,-68.59,,
1278.684,-67.34,,
1278.699,-72.66,,
1278.714,-210.0,,
1278.729,-70.22,,
1278.744,-67.5,,
1278.759,-66.35,,
1278.774,-69.39,,
1278.789,-68.74,,
1278.804,-66.42,,
1278.819,-65.02,,
1278.834,-65.15,,
1278.849,-69.11,,
1278.864,-66.74,,
1278.879,-64.46,,
1278.894,-64.34,,
1278.909,-67.24,,
1278.924,-72.97,,
1278.939,-67.25,,
1278.954,-66.39,,
1278.969,-66.56,,
1278.984,-72.83,,
1278.999,-210.0,,
1279.014,-69.79,,
1279.029,-67.39,,
1279.044,-70.01,,
1279.059,-210.0,,
1279.074,-210.0,,
1279.089,-210.0,,
1279.104,-210.0,,
1279.119,-210.0,,
1279.134,-210.0,,
1279.149,-210.0,,
1279.164,-69.99,,
1279.179,-76.23,,
1279.194,-210.0,,
1279.209,-210.0,,
1279.224,-76.49,,
1279.239,-69.34,,
1279.254,-89.56,,
1279.269,-210.0,,
1279.284,-210.0,,
1279.299,-71.87,,
1279.314,-70.1,,
1279.329,-210.0,,
1279.344,-210.0,,
1279.359,-210.0,,
1279.374,-67.53,,
1279.389,-67.27,,
1279.404,-68.65,,
1279.419,-72.43,,
1279.434,-70.84,,
1279.449,-65.62,,
1279.464,-66.26,,
1279.479,-66.94,,
1279.494,-68.41,,
1279.509,-67.66,,
1279.524,-64.79,,
1279.539,-66.15,,
1279.554,-66.76,,
1279.569,-65.85,,
1279.584,-64.09,,
1279.599,-64.43,,
1279.614,-66.8,,
1279.629,-66.89,,
1279.644,-66.54,,
1279.659,-65.25,,
1279.674,-64.98,,
1279.689,-67.46,,
1279.704,-67.09,,
1279.719,-67.64,,
1279.734,-67.16,,
1279.749,-66.73,,
1279.764,-70.07,,
1279.779,-70.71,,
1279.794,-75.68,,
1279.809,-72.07,,
1279.824,-71.3,,
1279.839,-210.0,,
1279.854,-73.53,,
1279.869,-74.28,,
1279.884,-76.46,,
1279.899,-210.0,,
1279.914,-210.0,,
1279.929,-70.23,,
1279.944,-69.9,,
1279.959,-69.86,,
1279.974,-72.7,,
1279.989,-74.36,,
1280.004,-66.21,,
1280.019,-65.32,,
1280.034,-66.34,,
1280.049,-68.41,,
1280.064,-66.88,,
1280.079,-63.8,,
1280.094,-63.66,,
1280.109,-63.81,,
1280.124,-64.47,,
1280.139,-64.02,,
1280.154,-64.1,,
1280.169,-64.11,,
1280.184,-64.17,,
1280.199,-63.68,,
1280.214,-63.55,,
1280.229,-63.2,,
1280.244,-64.12,,
1280.259,-64.41,,
1280.274,-65.38,,
1280.289,-63.96,,
1280.304,-63.87,,
1280.319,-65.15,,
1280.334,-67.97,,
1280.349,-68.16,,
1280.364,-65.47,,
1280.379,-65.45,,
1280.394,-67.43,,
1280.409,-210.0,,
1280.424,-85.28,,
1280.439,-71.62,,
1280.454,-72.23,,
1280.469,-84.02,,
1280.484,-210.0,,
1280.499,-210.0,,
1280.514,-210.0,,
1280.529,-210.0,,
1280.544,-210.0,,
1280.559,-210.0,,
1280.574,-210.0,,
1280.589,-210.0,,
1280.604,-210.0,,
1280.619,-210.0,,
1280.634,-210.0,,
1280.649,-77.81,,
1280.664,-92.03,,
1280.679,-210.0,,
1280.694,-210.0,,
1280.709,-210.0,,
1280.724,-71.87,,
1280.739,-71.63,,
1280.754,-78.37,,
1280.769,-210.0,,
1280.784,-74.65,,
1280.799,-66.48,,
1280.814,-66.38,,
1280.829,-69.14,,
1280.844,-68.38,,
1280.859,-66.54,,
1280.874,-64.61,,
1280.889,-66.33,,
1280.904,-65.75,,
1280.919,-66.02,,
1280.934,-65.12,,
1280.949,-64.86,,
1280.964,-67.65,,
1280.979,-68.01,,
1280.994,-67.02,,
1281.009,-66.14,,
1281.024,-67.45,,
1281.039,-75.74,,
1281.054,-72.91,,
1281.069,-72.96,,
1281.084,-71.93,,
1281.099,-75.28,,
1281.114,-210.0,,
1281.129,-210.0,,
1281.144,-210.0,,
1281.159,-210.0,,
1281.174,-210.0,,
1281.189,-210.0,,
1281.204,-210.0,,
1281.219,-210.0,,
1281.234,-210.0,,
1281.249,-210.0,,
1281.264,-210.0,,
1281.279,-210.0,,
1281.294,-210.0,,
1281.309,-210.0,,
1281.324,-210.0,,
1281.339,-210.0,,
1281.354,-73.16,,
1281.369,-75.48,,
1281.384,-210.0,,
1281.399,-210.0,,
1281.414,-210.0,,
1281.429,-68.16,,
1281.444,-66.56,,
1281.459,-68.01,,
1281.474,-70.56,,
1281.489,-67.81,,
1281.504,-64.7,,
1281.519,-64.86,,
1281.534,-65.75,,
1281.549,-66.67,,
1281.564,-65.26,,
1281.579,-63.84,,
1281.594,-66.51,,
1281.609,-68.84,,
1281.624,-68.16,,
1281.639,-64.97,,
1281.654,-65.68,,
1281.669,-69.3,,
1281.684,-73.84,,
1281.699,-70.37,,
1281.714,-67.85,,
1281.729,-68.92,,
1281.744,-77.47,,
1281.759,-210.0,,
1281.774,-69.16,,
1281.789,-67.92,,
1281.804,-68.12,,
1281.819,-210.0,,
1281.834,-210.0,,
1281.849,-66.99,,
1281.864,-68.34,,
1281.879,-70.92,,
1281.894,-210.0,,
1281.909,-210.0,,
1281.924,-67.19,,
1281.939,-68.95,,
1281.954,-88.71,,
1281.969,-210.0,,
1281.984,-73.63,,
1281.999,-67.47,,
1282.014,-74.27,,
1282.029,-210.0,,
1282.044,-210.0,,
1282.059,-80.62,,
1282.074,-70.7,,
1282.089,-210.0,,
1282.104,-210.0,,
1282.119,-70.94,,
1282.134,-68.82,,
1282.149,-66.1,,
1282.164,-70.42,,
1282.179,-71.79,,
1282.194,-65.62,,
1282.209,-66.4,,
1282.224,-65.61,,
1282.239,-70.32,,
1282.254,-70.65,,
1282.269,-65.92,,
1282.284,-68.52,,
1282.299,-68.94,,
1282.314,-210.0,,
1282.329,-75.91,,
1282.344,-67.5,,
1282.359,-69.98,,
1282.374,-79.61,,
1282.389,-210.0,,
1282.404,-72.16,,
1282.419,-67.8,,
1282.434,-81.58,,
1282.449,-210.0,,
1282.464,-74.08,,
1282.479,-67.84,,
1282.494,-68.44,,
1282.509,-210.0,,
1282.524,-70.6,,
1282.539,-70.75,,
1282.554,-67.3,,
1282.569,-68.5,,
1282.584,-210.0,,
1282.599,-70.36,,
1282.614,-66.48,,
1282.629,-66.39,,
1282.644,-69.46,,
1282.659,-210.0,,
1282.674,-69.09,,
1282.689,-66.92,,
1282.704,-67.76,,
1282.719,-68.42,,
1282.734,-71.8,,
1282.749,-67.15,,
1282.764,-66.24,,
1282.779,-70.72,,
1282.794,-69.45,,
1282.809,-71.71,,
1282.824,-66.96,,
1282.839,-65.61,,
1282.854,-70.83,,
1282.869,-68.91,,
1282.884,-68.61,,
1282.899,-67.63,,
1282.914,-66.43,,
1282.929,-74.15,,
1282.944,-75.88,,
1282.959,-68.32,,
1282.974,-66.69,,
1282.989,-67.36,,
1283.004,-78.53,,
1283.019,-70.36,,
1283.034,-66.57,,
1283.049,-65.25,,
1283.064,-67.77,,
1283.079,-80.28,,
1283.094,-67.72,,
1283.109,-65.01,,
1283.124,-67.16,,
1283.139,-73.17,,
1283.154,-70.49,,
1283.169,-66.55,,
1283.184,-65.53,,
1283.199,-70.85,,
1283.214,-75.03,,
1283.229,-68.61,,
1283.244,-64.91,,
1283.259,-64.91,,
1283.274,-68.2,,
1283.289,-66.83,,
1283.304,-65.01,,
1283.319,-63.61,,
1283.334,-63.79,,
1283.349,-66.27,,
1283.364,-65.13,,
1283.379,-63.27,,
1283.394,-62.49,,
1283.409,-64.21,,
1283.424,-66.14,,
1283.439,-63.46,,
1283.454,-63.04,,
1283.469,-64.25,,
1283.484,-66.21,,
1283.499,-65.03,,
1283.514,-63.43,,
1283.529,-63.66,,
1283.544,-66.44,,
1283.559,-66.04,,
1283.574,-64.7,,
1283.589,-63.33,,
1283.604,-63.43,,
1283.619,-66.87,,
1283.634,-65.33,,
1283.649,-63.5,,
1283.664,-63.27,,
1283.679,-63.4,,
1283.694,-65.68,,
1283.709,-63.9,,
1283.724,-62.75,,
1283.739,-62.78,,
1283.754,-64.24,,
1283.769,-65.39,,
1283.784,-63.35,,
1283.799,-63.02,,
1283.814,-64.47,,
1283.829,-64.88,,
1283.844,-64.77,,
1283.859,-63.17,,
1283.874,-63.01,,
1283.889,-65.41,,
1283.904,-63.86,,
1283.919,-63.63,,
1283.934,-62.37,,
1283.949,-62.64,,
1283.964,-64.12,,
1283.979,-63.27,,
1283.994,-63.24,,
1284.009,-62.74,,
1284.024,-62.47,,
1284.039,-63.47,,
1284.054,-62.79,,
1284.069,-61.88,,
1284.084,-61.64,,
1284.099,-61.81,,
1284.114,-63.18,,
1284.129,-62.66,,
1284.144,-61.5,,
1284.159,-63.08,,
1284.174,-63.6,,
1284.189,-63.79,,
1284.204,-62.56,,
1284.219,-61.71,,
1284.234,-63.1,,
1284.249,-63.3,,
1284.264,-63.06,,
1284.279,-61.99,,
1284.294,-61.93,,
1284.309,-63.1,,
1284.324,-62.73,,
1284.339,-62.55,,
1284.354,-62.11,,
1284.369,-62.31,,
1284.384,-63.74,,
1284.399,-63.46,,
1284.414,-62.32,,
1284.429,-62.43,,
1284.444,-62.99,,
1284.459,-64.49,,
1284.474,-63.26,,
1284.489,-62.2,,
1284.504,-63.37,,
1284.519,-64.78,,
1284.534,-66.65,,
1284.549,-63.49,,
1284.564,-63.22,,
1284.579,-66.05,,
1284.594,-66.72,,
1284.609,-66.54,,
1284.624,-64.27,,
1284.639,-63.79,,
1284.654,-66.68,,
1284.669,-65.06,,
1284.684,-64.58,,
1284.699,-63.9,,
1284.714,-64.34,,
1284.729,-67.76,,
1284.744,-66.2,,
1284.759,-64.56,,
1284.774,-64.23,,
1284.789,-65.02,,
1284.804,-68.75,,
1284.819,-65.8,,
1284.834,-64.59,,
1284.849,-67.48,,
1284.864,-70.78,,
1284.879,-210.0,,
1284.894,-67.54,,
1284.909,-67.71,,
1284.924,-73.55,,
1284.939,-210.0,,
1284.954,-73.62,,
1284.969,-66.84,,
1284.984,-67.2,,
1284.999,-73.42,,
1285.014,-67.87,,
1285.029,-67.67,,
1285.044,-67.96,,
1285.059,-69.97,,
1285.074,-210.0,,
1285.089,-70.27,,
1285.104,-68.93,,
1285.119,-69.01,,
1285.134,-71.48,,
1285.149,-210.0,,
1285.164,-69.32,,
1285.179,-68.19,,
1285.194,-76.46,,
1285.209,-210.0,,
1285.224,-210.0,,
1285.24,-76.86,,
1285.255,-210.0,,
1285.269,-210.0,,
1285.284,-210.0,,
1285.299,-210.0,,
1285.314,-75.51,,
1285.329,-210.0,,
1285.344,-210.0,,
1285.359,-210.0,,
1285.375,-77.25,,
1285.39,-81.51,,
1285.404,-210.0,,
1285.419,-210.0,,
1285.434,-210.0,,
1285.449,-86.66,,
1285.464,-210.0,,
1285.479,-210.0,,
1285.495,-210.0,,
1285.51,-210.0,,
1285.525,-210.0,,
1285.54,-210.0,,
1285.554,-210.0,,
1285.569,-210.0,,
1285.584,-70.37,,
1285.599,-69.64,,
1285.615,-210.0,,
1285.63,-80.21,,
1285.645,-81.8,,
1285.66,-68.04,,
1285.675,-70.59,,
1285.689,-210.0,,
1285.704,-81.44,,
1285.719,-70.58,,
1285.734,-69.49,,
1285.75,-86.31,,
1285.765,-210.0,,
1285.78,-87.46,,
1285.795,-70.8,,
1285.81,-69.59,,
1285.825,-73.2,,
1285.839,-210.0,,
1285.854,-70.15,,
1285.87,-69.55,,
1285.885,-70.55,,
1285.9,-72.59,,
1285.915,-76.02,,
1285.93,-67.92,,
1285.945,-68.76,,
1285.96,-210.0,,
1285.974,-210.0,,
1285.99,-87.5,,
1286.005,-67.52,,
1286.02,-69.99,,
1286.035,-210.0,,
1286.05,-70.0,,
1286.065,-68.25,,
1286.08,-68.92,,
1286.095,-75.64,,
1286.11,-210.0,,
1286.125,-71.01,,
1286.14,-70.96,,
1286.155,-82.13,,
1286.17,-210.0,,
1286.185,-210.0,,
1286.2,-210.0,,
1286.215,-210.0,,
1286.23,-210.0,,
1286.245,-210.0,,
1286.26,-210.0,,
1286.275,-68.2,,
1286.29,-74.03,,
1286.305,-210.0,,
1286.32,-210.0,,
1286.335,-210.0,,
1286.35,-70.36,,
1286.365,-210.0,,
1286.38,-210.0,,
1286.395,-74.83,,
1286.41,-210.0,,
1286.425,-210.0,,
1286.44,-210.0,,
1286.455,-210.0,,
1286.47,-210.0,,
1286.485,-210.0,,
1286.5,-210.0,,
1286.515,-210.0,,
1286.53,-210.0,,
1286.545,-210.0,,
1286.56,-210.0,,
1286.575,-210.0,,
1286.59,-210.0,,
1286.605,-210.0,,
1286.62,-210.0,,
1286.635,-210.0,,
1286.65,-210.0,,
1286.665,-210.0,,
1286.68,-210.0,,
1286.695,-210.0,,
1286.71,-210.0,,
1286.725,-210.0,,
1286.74,-210.0,,
1286.755,-210.0,,
1286.77,-210.0,,
1286.785,-210.0,,
1286.8,-210.0,,
1286.815,-210.0,,
1286.83,-210.0,,
1286.845,-210.0,,
1286.86,-210.0,,
1286.875,-210.0,,
1286.89,-210.0,,
1286.905,-210.0,,
1286.92,-210.0,,
1286.935,-210.0,,
1286.95,-210.0,,
1286.965,-210.0,,
1286.98,-210.0,,
1286.995,-210.0,,
1287.01,-210.0,,
1287.025,-210.0,,
1287.04,-210.0,,
1287.055,-210.0,,
1287.07,-210.0,,
1287.085,-210.0,,
1287.1,-87.89,,
1287.115,-210.0,,
1287.13,-210.0,,
1287.145,-210.0,,
1287.16,-210.0,,
1287.175,-70.41,,
1287.19,-78.01,,
1287.205,-72.42,,
1287.22,-70.34,,
1287.235,-72.07,,
1287.25,-77.46,,
1287.265,-210.0,,
1287.28,-210.0,,
1287.295,-70.9,,
1287.31,-210.0,,
1287.325,-210.0,,
1287.34,-210.0,,
1287.355,-210.0,,
1287.37,-78.98,,
1287.385,-210.0,,
1287.4,-210.0,,
1287.415,-210.0,,
1287.43,-210.0,,
1287.445,-210.0,,
1287.46,-210.0,,
1287.475,-210.0,,
1287.49,-210.0,,
1287.505,-210.0,,
1287.52,-69.93,,
1287.535,-67.66,,
1287.55,-68.73,,
1287.565,-66.97,,
1287.58,-69.43,,
1287.595,-70.05,,
1287.61,-68.29,,
1287.625,-74.0,,
1287.64,-72.58,,
1287.655,-210.0,,
1287.67,-210.0,,
1287.685,-210.0,,
1287.7,-210.0,,
1287.715,-81.81,,
1287.73,-69.34,,
1287.745,-72.68,,
1287.76,-70.53,,
1287.775,-69.22,,
1287.79,-70.65,,
1287.805,-66.82,,
1287.82,-68.35,,
1287.835,-67.98,,
1287.85,-67.77,,
1287.865,-70.01,,
1287.88,-68.23,,
1287.895,-69.65,,
1287.91,-75.41,,
1287.925,-73.06,,
1287.94,-210.0,,
1287.955,-210.0,,
1287.97,-210.0,,
1287.985,-210.0,,
1288.0,-210.0,,
1288.015,-79.81,,
1288.03,-89.87,,
1288.045,-70.34,,
1288.06,-73.04,,
1288.075,-72.69,,
1288.09,-210.0,,
1288.105,-210.0,,
1288.12,-210.0,,
1288.135,-210.0,,
1288.15,-210.0,,
1288.165,-210.0,,
1288.18,-210.0,,
1288.195,-73.4,,
1288.21,-210.0,,
1288.225,-210.0,,
1288.24,-71.38,,
1288.255,-210.0,,
1288.27,-70.87,,
1288.285,-70.34,,
1288.3,-71.99,,
1288.315,-70.24,,
1288.33,-72.29,,
1288.345,-71.94,,
1288.36,-69.71,,
1288.375,-210.0,,
1288.39,-72.57,,
1288.405,-75.11,,
1288.42,-71.87,,
1288.435,-73.32,,
1288.45,-74.59,,
1288.465,-66.62,,
1288.48,-65.77,,
1288.495,-66.38,,
1288.51,-66.18,,
1288.525,-67.04,,
1288.54,-67.15,,
1288.555,-67.89,,
1288.57,-73.98,,
1288.585,-68.75,,
1288.6,-69.6,,
1288.615,-69.33,,
1288.63,-70.29,,
1288.645,-77.08,,
1288.66,-68.2,,
1288.675,-68.08,,
1288.69,-68.19,,
1288.705,-68.06,,
1288.72,-66.86,,
1288.735,-66.51,,
1288.75,-65.73,,
1288.765,-70.31,,
1288.78,-70.05,,
1288.795,-68.74,,
1288.81,-69.63,,
1288.825,-69.27,,
1288.84,-210.0,,
1288.855,-73.83,,
1288.87,-71.27,,
1288.885,-69.97,,
1288.9,-210.0,,
1288.915,-210.0,,
1288.93,-69.69,,
1288.945,-66.74,,
1288.96,-67.57,,
1288.975,-68.99,,
1288.99,-69.92,,
1289.005,-67.35,,
1289.02,-67.72,,
1289.035,-210.0,,
1289.05,-210.0,,
1289.065,-210.0,,
1289.08,-72.48,,
1289.095,-80.78,,
1289.11,-210.0,,
1289.125,-210.0,,
1289.14,-69.43,,
1289.155,-68.46,,
1289.17,-71.38,,
1289.185,-70.71,,
1289.2,-69.21,,
1289.215,-67.85,,
1289.23,-73.59,,
1289.245,-210.0,,
1289.26,-74.81,,
1289.275,-69.97,,
1289.29,-72.48,,
1289.305,-210.0,,
1289.32,-210.0,,
1289.335,-210.0,,
1289.35,-210.0,,
1289.365,-210.0,,
1289.38,-210.0,,
1289.395,-210.0,,
1289.41,-71.47,,
1289.425,-210.0,,
1289.44,-210.0,,
1289.455,-210.0,,
1289.47,-210.0,,
1289.485,-210.0,,
1289.5,-210.0,,
1289.515,-210.0,,
1289.53,-210.0,,
1289.545,-210.0,,
1289.56,-210.0,,
1289.575,-210.0,,
1289.59,-210.0,,
1289.605,-210.0,,
1289.62,-210.0,,
1289.635,-210.0,,
1289.65,-210.0,,
1289.665,-210.0,,
1289.68,-75.05,,
1289.695,-210.0,,
1289.71,-210.0,,
1289.725,-210.0,,
1289.74,-210.0,,
1289.755,-210.0,,
1289.77,-210.0,,
1289.785,-210.0,,
1289.8,-72.18,,
1289.815,-70.96,,
1289.83,-80.7,,
1289.845,-210.0,,
1289.86,-210.0,,
1289.875,-69.46,,
1289.89,-210.0,,
1289.905,-210.0,,
1289.92,-210.0,,
1289.935,-74.87,,
1289.95,-82.46,,
1289.965,-210.0,,
1289.98,-210.0,,
1289.995,-210.0,,
1290.01,-210.0,,
1290.025,-210.0,,
1290.04,-210.0,,
1290.055,-210.0,,
1290.07,-74.63,,
1290.085,-75.48,,
1290.1,-210.0,,
1290.115,-210.0,,
1290.13,-75.2,,
1290.145,-210.0,,
1290.16,-210.0,,
1290.175,-210.0,,
1290.19,-210.0,,
1290.205,-210.0,,
1290.22,-210.0,,
1290.235,-210.0,,
1290.25,-210.0,,
1290.265,-210.0,,
1290.28,-210.0,,
1290.295,-210.0,,
1290.31,-210.0,,
1290.325,-210.0,,
1290.34,-70.6,,
1290.355,-71.29,,
1290.37,-71.51,,
1290.385,-69.88,,
1290.4,-70.68,,
1290.415,-73.15,,
1290.43,-72.07,,
1290.445,-210.0,,
1290.46,-70.85,,
1290.475,-69.73,,
1290.49,-71.61,,
1290.505,-72.73,,
1290.52,-69.64,,
1290.535,-67.37,,
1290.55,-68.99,,
1290.565,-69.13,,
1290.58,-68.41,,
1290.595,-67.97,,
1290.61,-67.98,,
1290.625,-68.0,,
1290.64,-76.12,,
1290.655,-67.65,,
1290.67,-68.42,,
1290.685,-68.68,,
1290.7,-66.92,,
1290.715,-72.06,,
1290.73,-67.07,,
1290.745,-66.53,,
1290.76,-70.13,,
1290.775,-68.62,,
1290.79,-69.44,,
1290.805,-67.61,,
1290.82,-67.81,,
1290.835,-80.27,,
1290.85,-68.92,,
1290.865,-66.4,,
1290.88,-67.11,,
1290.895,-67.48,,
1290.91,-70.34,,
1290.925,-65.23,,
1290.94,-65.15,,
1290.955,-67.21,,
1290.97,-66.83,,
1290.985,-67.82,,
1291.0,-64.37,,
1291.015,-64.01,,
1291.03,-66.56,,
1291.045,-64.9,,
1291.06,-63.36,,
1291.075,-64.55,,
1291.09,-65.87,,
1291.105,-70.48,,
1291.12,-66.18,,
1291.135,-65.19,,
1291.15,-66.87,,
1291.165,-71.39,,
1291.18,-66.4,,
1291.195,-65.28,,
1291.21,-64.72,,
1291.225,-66.01,,
1291.24,-65.9,,
1291.255,-63.58,,
1291.27,-64.82,,
1291.285,-67.11,,
1291.3,-73.32,,
1291.315,-69.07,,
1291.33,-65.73,,
1291.345,-68.0,,
1291.36,-74.93,,
1291.375,-73.98,,
1291.39,-67.55,,
1291.405,-65.63,,
1291.42,-68.73,,
1291.435,-70.57,,
1291.45,-66.03,,
1291.465,-65.87,,
1291.48,-68.55,,
1291.495,-79.51,,
1291.51,-74.35,,
1291.525,-68.09,,
1291.54,-69.44,,
1291.555,-210.0,,
1291.57,-210.0,,
1291.585,-70.33,,
1291.6,-66.89,,
1291.615,-68.16,,
1291.63,-210.0,,
1291.645,-68.76,,
1291.66,-68.75,,
1291.675,-68.97,,
1291.69,-73.57,,
1291.705,-210.0,,
1291.72,-69.7,,
1291.735,-70.24,,
1291.75,-210.0,,
1291.765,-210.0,,
1291.78,-71.14,,
1291.795,-68.41,,
1291.81,-70.06,,
1291.825,-210.0,,
1291.84,-72.82,,
1291.855,-69.2,,
1291.87,-210.0,,
1291.885,-210.0,,
1291.9,-210.0,,
1291.915,-71.29,,
1291.93,-68.87,,
1291.945,-210.0,,
1291.96,-210.0,,
1291.975,-71.01,,
1291.99,-67.15,,
1292.005,-72.03,,
1292.02,-210.0,,
1292.035,-82.13,,
1292.05,-68.52,,
1292.065,-78.46,,
1292.08,-210.0,,
1292.095,-210.0,,
1292.11,-68.63,,
1292.125,-67.32,,
1292.14,-74.49,,
1292.155,-210.0,,
1292.17,-67.01,,
1292.185,-67.14,,
1292.2,-69.09,,
1292.215,-72.79,,
1292.23,-79.04,,
1292.245,-66.28,,
1292.26,-67.36,,
1292.275,-70.2,,
1292.29,-68.28,,
1292.305,-64.72,,
1292.32,-64.65,,
1292.335,-65.95,,
1292.35,-68.19,,
1292.365,-64.42,,
1292.38,-64.22,,
1292.395,-65.59,,
1292.41,-67.94,,
1292.425,-65.61,,
1292.44,-64.31,,
1292.455,-64.69,,
1292.47,-67.01,,
1292.485,-65.61,,
1292.5,-64.07,,
1292.515,-63.48,,
1292.53,-65.87,,
1292.545,-67.87,,
1292.56,-65.18,,
1292.575,-64.46,,
1292.59,-65.38,,
1292.605,-69.33,,
1292.62,-67.82,,
1292.635,-65.33,,
1292.65,-65.58,,
1292.665,-67.42,,
1292.68,-67.14,,
1292.695,-65.25,,
1292.71,-64.25,,
1292.725,-66.59,,
1292.74,-69.21,,
1292.755,-66.45,,
1292.77,-65.47,,
1292.785,-67.01,,
1292.8,-71.2,,
1292.815,-68.99,,
1292.83,-65.44,,
1292.845,-64.78,,
1292.86,-65.53,,
1292.875,-66.85,,
1292.89,-64.58,,
1292.905,-64.39,,
1292.92,-65.25,,
1292.935,-68.8,,
1292.95,-68.23,,
1292.965,-65.18,,
1292.98,-65.94,,
1292.995,-69.9,,
1293.01,-67.39,,
1293.025,-64.57,,
1293.04,-64.62,,
1293.055,-65.59,,
1293.07,-68.43,,
1293.085,-65.69,,
1293.1,-65.51,,
1293.115,-68.45,,
1293.13,-84.21,,
1293.145,-71.09,,
1293.16,-68.13,,
1293.175,-68.52,,
1293.19,-72.82,,
1293.205,-95.31,,
1293.22,-70.92,,
1293.235,-66.32,,
1293.25,-69.46,,
1293.266,-73.26,,
1293.281,-75.34,,
1293.295,-70.26,,
1293.31,-71.79,,
1293.325,-75.24,,
1293.34,-210.0,,
1293.355,-68.37,,
1293.37,-70.88,,
1293.385,-71.35,,
1293.401,-83.53,,
1293.416,-74.61,,
1293.43,-72.97,,
1293.445,-80.47,,
1293.46,-210.0,,
1293.475,-210.0,,
1293.49,-210.0,,
1293.505,-210.0,,
1293.521,-210.0,,
1293.536,-210.0,,
1293.551,-68.79,,
1293.566,-67.28,,
1293.58,-67.93,,
1293.595,-69.59,,
1293.61,-67.96,,
1293.625,-67.11,,
1293.641,-68.33,,
1293.656,-210.0,,
1293.671,-70.94,,
1293.686,-69.05,,
1293.701,-69.4,,
1293.715,-74.67,,
1293.73,-73.51,,
1293.745,-66.95,,
1293.76,-65.52,,
1293.776,-67.41,,
1293.791,-68.72,,
1293.806,-66.2,,
1293.821,-65.57,,
1293.836,-65.66,,
1293.851,-70.77,,
1293.865,-72.46,,
1293.88,-65.65,,
1293.896,-65.04,,
1293.911,-66.18,,
1293.926,-67.65,,
1293.941,-65.74,,
1293.956,-64.06,,
1293.971,-65.08,,
1293.986,-68.21,,
1294.001,-68.29,,
1294.016,-66.16,,
1294.031,-66.17,,
1294.046,-68.28,,
1294.061,-74.5,,
1294.076,-66.08,,
1294.091,-65.64,,
1294.106,-65.33,,
1294.121,-66.78,,
1294.136,-65.5,,
1294.151,-64.55,,
1294.166,-63.38,,
1294.181,-65.07,,
1294.196,-67.26,,
1294.211,-64.38,,
1294.226,-64.42,,
1294.241,-64.32,,
1294.256,-65.7,,
1294.271,-65.42,,
1294.286,-64.05,,
1294.301,-63.81,,
1294.316,-64.57,,
1294.331,-65.77,,
1294.346,-63.44,,
1294.361,-63.8,,
1294.376,-64.64,,
1294.391,-66.74,,
1294.406,-66.08,,
1294.421,-64.18,,
1294.436,-64.45,,
1294.451,-66.54,,
1294.466,-65.22,,
1294.481,-63.85,,
1294.496,-63.58,,
1294.511,-63.62,,
1294.526,-64.56,,
1294.541,-64.18,,
1294.556,-64.26,,
1294.571,-64.78,,
1294.586,-68.6,,
1294.601,-68.38,,
1294.616,-66.75,,
1294.631,-65.59,,
1294.646,-65.63,,
1294.661,-65.44,,
1294.676,-65.86,,
1294.691,-64.19,,
1294.706,-65.43,,
1294.721,-65.32,,
1294.736,-64.98,,
1294.751,-64.61,,
1294.766,-64.42,,
1294.781,-64.77,,
1294.796,-65.08,,
1294.811,-63.75,,
1294.826,-63.53,,
1294.841,-64.14,,
1294.856,-64.35,,
1294.871,-63.76,,
1294.886,-63.79,,
1294.901,-64.18,,
1294.916,-66.73,,
1294.931,-67.07,,
1294.946,-66.4,,
1294.961,-66.03,,
1294.976,-68.26,,
1294.991,-67.38,,
1295.006,-63.9,,
1295.021,-64.07,,
1295.036,-64.78,,
1295.051,-65.01,,
1295.066,-64.03,,
1295.081,-63.71,,
1295.096,-63.92,,
1295.111,-67.75,,
1295.126,-64.99,,
1295.141,-63.93,,
1295.156,-63.88,,
1295.171,-65.13,,
1295.186,-66.35,,
1295.201,-63.54,,
1295.216,-63.13,,
1295.231,-63.94,,
1295.246,-65.91,,
1295.261,-64.66,,
1295.276,-64.55,,
1295.291,-64.21,,
1295.306,-66.48,,
1295.321,-66.34,,
1295.336,-65.1,,
1295.351,-64.54,,
1295.366,-65.73,,
1295.381,-66.25,,
1295.396,-65.37,,
1295.411,-63.8,,
1295.426,-63.92,,
1295.441,-64.51,,
1295.456,-65.22,,
1295.471,-64.39,,
1295.486,-63.91,,
1295.501,-64.83,,
1295.516,-67.5,,
1295.531,-65.68,,
1295.546,-64.1,,
1295.561,-63.89,,
1295.576,-65.14,,
1295.591,-64.63,,
1295.606,-63.37,,
1295.621,-62.94,,
1295.636,-65.36,,
1295.651,-67.25,,
1295.666,-67.62,,
1295.681,-65.7,,
1295.696,-66.5,,
1295.711,-71.15,,
1295.726,-71.21,,
1295.741,-66.28,,
1295.756,-67.58,,
1295.771,-210.0,,
1295.786,-210.0,,
1295.801,-76.47,,
1295.816,-72.12,,
1295.831,-210.0,,
1295.846,-210.0,,
1295.861,-210.0,,
1295.876,-72.54,,
1295.891,-210.0,,
1295.906,-210.0,,
1295.921,-210.0,,
1295.936,-76.4,,
1295.951,-75.67,,
1295.966,-210.0,,
1295.981,-210.0,,
1295.996,-70.22,,
1296.011,-70.92,,
1296.026,-80.0,,
1296.041,-210.0,,
1296.056,-210.0,,
1296.071,-68.97,,
1296.086,-210.0,,
1296.101,-210.0,,
1296.116,-73.01,,
1296.131,-69.83,,
1296.146,-68.13,,
1296.161,-77.27,,
1296.176,-210.0,,
1296.191,-69.01,,
1296.206,-69.43,,
1296.221,-210.0,,
1296.236,-210.0,,
1296.251,-210.0,,
1296.266,-75.56,,
1296.281,-75.35,,
1296.296,-210.0,,
1296.311,-210.0,,
1296.326,-74.41,,
1296.341,-73.27,,
1296.356,-210.0,,
1296.371,-210.0,,
1296.386,-210.0,,
1296.401,-210.0,,
1296.416,-210.0,,
1296.431,-210.0,,
1296.446,-210.0,,
1296.461,-210.0,,
1296.476,-75.99,,
1296.491,-210.0,,
1296.506,-210.0,,
1296.521,-76.47,,
1296.536,-210.0,,
1296.551,-210.0,,
1296.566,-210.0,,
1296.581,-210.0,,
1296.596,-76.32,,
1296.611,-210.0,,
1296.626,-210.0,,
1296.641,-210.0,,
1296.656,-69.31,,
1296.671,-67.73,,
1296.686,-70.34,,
1296.701,-70.17,,
1296.716,-65.48,,
1296.731,-64.15,,
1296.746,-66.11,,
1296.761,-67.47,,
1296.776,-64.55,,
1296.791,-63.76,,
1296.806,-65.1,,
1296.821,-65.45,,
1296.836,-66.16,,
1296.851,-63.6,,
1296.866,-64.71,,
1296.881,-67.63,,
1296.896,-65.13,,
1296.911,-64.05,,
1296.926,-63.68,,
1296.941,-64.39,,
1296.956,-65.83,,
1296.971,-63.68,,
1296.986,-63.29,,
1297.001,-65.11,,
1297.016,-65.81,,
1297.031,-64.42,,
1297.046,-63.74,,
1297.061,-64.05,,
1297.076,-67.99,,
1297.091,-65.89,,
1297.106,-64.17,,
1297.121,-65.67,,
1297.136,-68.94,,
1297.151,-69.62,,
1297.166,-67.88,,
1297.181,-65.31,,
1297.196,-66.8,,
1297.211,-74.4,,
1297.226,-66.76,,
1297.241,-65.85,,
1297.256,-65.74,,
1297.271,-66.65,,
1297.286,-68.38,,
1297.301,-64.52,,
1297.316,-64.09,,
1297.331,-67.16,,
1297.346,-66.26,,
1297.361,-64.65,,
1297.376,-63.47,,
1297.391,-64.25,,
1297.406,-67.27,,
1297.421,-65.78,,
1297.436,-64.11,,
1297.451,-65.23,,
1297.466,-67.2,,
1297.481,-66.26,,
1297.496,-65.34,,
1297.511,-66.8,,
1297.526,-70.99,,
1297.541,-78.38,,
1297.556,-66.8,,
1297.571,-68.15,,
1297.586,-210.0,,
1297.601,-210.0,,
1297.616,-210.0,,
1297.631,-70.03,,
1297.646,-67.93,,
1297.661,-210.0,,
1297.676,-77.62,,
1297.691,-67.83,,
1297.706,-69.43,,
1297.721,-210.0,,
1297.736,-210.0,,
1297.751,-75.35,,
1297.766,-68.07,,
1297.781,-90.19,,
1297.796,-210.0,,
1297.811,-68.44,,
1297.826,-69.51,,
1297.841,-210.0,,
1297.856,-210.0,,
1297.871,-210.0,,
1297.886,-68.98,,
1297.901,-72.04,,
1297.916,-210.0,,
1297.931,-77.41,,
1297.946,-70.53,,
1297.961,-73.72,,
1297.976,-210.0,,
1297.991,-210.0,,
1298.006,-210.0,,
1298.021,-77.44,,
1298.036,-210.0,,
1298.051,-210.0,,
1298.066,-210.0,,
1298.081,-70.87,,
1298.096,-70.63,,
1298.111,-210.0,,
1298.126,-210.0,,
1298.141,-67.8,,
1298.156,-70.53,,
1298.171,-210.0,,
1298.186,-210.0,,
1298.201,-210.0,,
1298.216,-68.37,,
1298.231,-76.13,,
1298.246,-210.0,,
1298.261,-69.96,,
1298.276,-69.57,,
1298.291,-71.6,,
1298.306,-78.01,,
1298.321,-76.35,,
1298.336,-67.45,,
1298.351,-69.05,,
1298.366,-210.0,,
1298.381,-83.26,,
1298.396,-69.26,,
1298.411,-67.83,,
1298.426,-69.21,,
1298.441,-69.82,,
1298.456,-67.36,,
1298.471,-66.29,,
1298.486,-73.42,,
1298.501,-78.96,,
1298.516,-67.17,,
1298.531,-65.34,,
1298.546,-66.4,,
1298.561,-70.44,,
1298.576,-69.19,,
1298.591,-64.96,,
1298.606,-65.61,,
1298.621,-69.1,,
1298.636,-68.24,,
1298.651,-69.68,,
1298.666,-67.84,,
1298.681,-68.14,,
1298.696,-80.99,,
1298.711,-73.68,,
1298.726,-66.59,,
1298.741,-72.41,,
1298.756,-84.36,,
1298.771,-76.89,,
1298.786,-69.41,,
1298.801,-67.01,,
1298.816,-72.15,,
1298.831,-79.79,,
1298.846,-65.88,,
1298.861,-66.31,,
1298.876,-68.23,,
1298.891,-68.6,,
1298.906,-67.2,,
1298.921,-64.28,,
1298.936,-65.54,,
1298.951,-70.56,,
1298.966,-65.81,,
1298.981,-65.01,,
1298.996,-64.05,,
1299.011,-65.26,,
1299.026,-69.22,,
1299.041,-65.47,,
1299.056,-64.11,,
1299.071,-68.48,,
1299.086,-69.86,,
1299.101,-68.31,,
1299.116,-67.33,,
1299.131,-70.13,,
1299.146,-210.0,,
1299.161,-210.0,,
1299.176,-68.16,,
1299.191,-73.16,,
1299.206,-210.0,,
1299.221,-210.0,,
1299.236,-69.85,,
1299.251,-71.81,,
1299.266,-210.0,,
1299.281,-210.0,,
1299.296,-210.0,,
1299.311,-73.72,,
1299.326,-210.0,,
1299.341,-210.0,,
1299.356,-210.0,,
1299.371,-210.0,,
1299.386,-75.97,,
1299.401,-210.0,,
1299.416,-210.0,,
1299.431,-210.0,,
1299.446,-210.0,,
1299.461,-210.0,,
1299.476,-210.0,,
1299.491,-210.0,,
1299.506,-70.58,,
1299.521,-210.0,,
1299.536,-210.0,,
1299.551,-73.94,,
1299.566,-67.76,,
1299.581,-69.73,,
1299.596,-210.0,,
1299.611,-70.87,,
1299.626,-65.81,,
1299.641,-65.75,,
1299.656,-70.31,,
1299.671,-69.07,,
1299.686,-67.3,,
1299.701,-66.49,,
1299.716,-72.12,,
1299.731,-73.03,,
1299.746,-68.31,,
1299.761,-65.59,,
1299.776,-68.85,,
1299.791,-71.82,,
1299.806,-72.19,,
1299.821,-68.5,,
1299.836,-71.96,,
1299.851,-84.07,,
1299.866,-72.59,,
1299.881,-66.23,,
1299.896,-66.86,,
1299.911,-71.27,,
1299.926,-77.66,,
1299.941,-70.95,,
1299.956,-69.65,,
1299.971,-76.29,,
1299.986,-78.97,,
1300.001,-72.35,,
1300.016,-69.08,,
1300.031,-68.76,,
1300.046,-70.91,,
1300.061,-74.95,,
1300.076,-68.55,,
1300.091,-71.3,,
1300.106,-89.83,,
1300.121,-69.87,,
1300.136,-67.3,,
1300.151,-65.64,,
1300.166,-67.6,,
1300.181,-67.4,,
1300.196,-66.12,,
1300.211,-65.36,,
1300.226,-66.91,,
1300.241,-66.65,,
1300.256,-65.43,,
1300.271,-64.43,,
1300.286,-64.29,,
1300.301,-65.02,,
1300.316,-65.01,,
1300.331,-65.35,,
1300.346,-66.35,,
1300.361,-66.98,,
1300.376,-64.98,,
1300.391,-66.43,,
1300.406,-64.36,,
1300.421,-65.36,,
1300.436,-65.59,,
1300.451,-65.0,,
1300.466,-64.5,,
1300.481,-65.34,,
1300.496,-64.37,,
1300.511,-65.63,,
1300.526,-67.58,,
1300.541,-67.73,,
1300.556,-71.03,,
1300.571,-70.05,,
1300.586,-67.11,,
1300.601,-68.09,,
1300.616,-68.55,,
1300.631,-69.52,,
1300.646,-71.65,,
1300.661,-67.45,,
1300.676,-68.91,,
1300.691,-73.01,,
1300.706,-68.98,,
1300.721,-66.51,,
1300.736,-70.31,,
1300.751,-67.17,,
1300.766,-69.15,,
1300.781,-65.86,,
1300.796,-65.71,,
1300.811,-68.9,,
1300.826,-68.42,,
1300.841,-64.4,,
1300.856,-64.94,,
1300.871,-67.83,,
1300.886,-84.47,,
1300.901,-72.64,,
1300.916,-66.94,,
1300.931,-68.9,,
1300.946,-73.51,,
1300.961,-69.14,,
1300.976,-67.45,,
1300.991,-73.96,,
1301.006,-210.0,,
1301.021,-210.0,,
1301.036,-69.88,,
1301.051,-71.18,,
1301.066,-81.08,,
1301.081,-72.38,,
1301.096,-66.94,,
1301.111,-65.33,,
1301.126,-67.96,,
1301.141,-71.68,,
1301.156,-69.6,,
1301.171,-65.42,,
1301.186,-68.55,,
1301.201,-79.0,,
1301.216,-68.56,,
1301.231,-66.01,,
1301.246,-67.49,,
1301.261,-73.64,,
1301.276,-210.0,,
1301.292,-69.05,,
1301.307,-69.77,,
1301.321,-79.4,,
1301.336,-71.04,,
1301.351,-65.54,,
1301.366,-64.05,,
1301.381,-66.83,,
1301.396,-67.98,,
1301.411,-66.65,,
1301.427,-64.57,,
1301.442,-66.11,,
1301.457,-71.57,,
1301.471,-69.39,,
1301.486,-65.8,,
1301.501,-66.79,,
1301.516,-79.33,,
1301.531,-69.17,,
1301.547,-65.56,,
1301.562,-65.7,,
1301.577,-68.83,,
1301.592,-210.0,,
1301.606,-69.31,,
1301.621,-68.09,,
1301.636,-79.94,,
1301.651,-210.0,,
1301.667,-81.2,,
1301.682,-70.03,,
1301.697,-210.0,,
1301.712,-210.0,,
1301.727,-210.0,,
1301.742,-69.91,,
1301.756,-210.0,,
1301.771,-210.0,,
1301.786,-210.0,,
1301.802,-210.0,,
1301.817,-210.0,,
1301.832,-210.0,,
1301.847,-210.0,,
1301.862,-210.0,,
1301.877,-210.0,,
1301.891,-210.0,,
1301.906,-210.0,,
1301.922,-210.0,,
1301.937,-210.0,,
1301.952,-210.0,,
1301.967,-210.0,,
1301.982,-210.0,,
1301.997,-210.0,,
1302.012,-210.0,,
1302.027,-210.0,,
1302.042,-210.0,,
1302.057,-210.0,,
1302.072,-210.0,,
1302.087,-210.0,,
1302.102,-85.93,,
1302.117,-210.0,,
1302.132,-210.0,,
1302.147,-210.0,,
1302.162,-80.76,,
1302.177,-210.0,,
1302.192,-76.64,,
1302.207,-210.0,,
1302.222,-210.0,,
1302.237,-210.0,,
1302.252,-77.31,,
1302.267,-71.74,,
1302.282,-75.15,,
1302.297,-89.23,,
1302.312,-72.33,,
1302.327,-69.83,,
1302.342,-210.0,,
1302.357,-92.75,,
1302.372,-210.0,,
1302.387,-210.0,,
1302.402,-210.0,,
1302.417,-210.0,,
1302.432,-210.0,,
1302.447,-72.64,,
1302.462,-80.57,,
1302.477,-72.16,,
1302.492,-70.55,,
1302.507,-71.63,,
1302.522,-67.43,,
1302.537,-70.99,,
1302.552,-72.47,,
1302.567,-68.05,,
1302.582,-67.44,,
1302.597,-66.22,,
1302.612,-64.96,,
1302.627,-65.31,,
1302.642,-63.83,,
1302.657,-64.77,,
1302.672,-65.41,,
1302.687,-65.36,,
1302.702,-64.26,,
1302.717,-64.26,,
1302.732,-64.24,,
1302.747,-64.19,,
1302.762,-63.84,,
1302.777,-63.19,,
1302.792,-64.02,,
1302.807,-63.65,,
1302.822,-62.73,,
1302.837,-63.35,,
1302.852,-62.44,,
1302.867,-62.43,,
1302.882,-62.68,,
1302.897,-61.95,,
1302.912,-62.75,,
1302.927,-62.73,,
1302.942,-62.03,,
1302.957,-61.32,,
1302.972,-61.95,,
1302.987,-61.93,,
1303.002,-62.61,,
1303.017,-62.96,,
1303.032,-62.78,,
1303.047,-64.26,,
1303.062,-64.17,,
1303.077,-62.76,,
1303.092,-63.99,,
1303.107,-65.09,,
1303.122,-64.99,,
1303.137,-64.89,,
1303.152,-63.53,,
1303.167,-65.02,,
1303.182,-65.9,,
1303.197,-65.15,,
1303.212,-63.8,,
1303.227,-66.19,,
1303.242,-64.95,,
1303.257,-65.17,,
1303.272,-66.77,,
1303.287,-65.14,,
1303.302,-66.05,,
1303.317,-65.29,,
1303.332,-65.37,,
1303.347,-64.96,,
1303.362,-66.45,,
1303.377,-65.5,,
1303.392,-66.94,,
1303.407,-68.65,,
1303.422,-71.97,,
1303.437,-73.17,,
1303.452,-77.64,,
1303.467,-72.0,,
1303.482,-78.35,,
1303.497,-75.03,,
1303.512,-75.9,,
1303.527,-210.0,,
1303.542,-210.0,,
1303.557,-210.0,,
1303.572,-210.0,,
1303.587,-210.0,,
1303.602,-210.0,,
1303.617,-210.0,,
1303.632,-210.0,,
1303.647,-210.0,,
1303.662,-210.0,,
1303.677,-210.0,,
1303.692,-210.0,,
1303.707,-210.0,,
1303.722,-210.0,,
1303.737,-210.0,,
1303.752,-210.0,,
1303.767,-210.0,,
1303.782,-210.0,,
1303.797,-210.0,,
1303.812,-210.0,,
1303.827,-210.0,,
1303.842,-210.0,,
1303.857,-210.0,,
1303.872,-210.0,,
1303.887,-210.0,,
1303.902,-210.0,,
1303.917,-210.0,,
1303.932,-210.0,,
1303.947,-210.0,,
1303.962,-210.0,,
1303.977,-210.0,,
1303.992,-210.0,,
1304.007,-210.0,,
1304.022,-210.0,,
1304.037,-210.0,,
1304.052,-210.0,,
1304.067,-210.0,,
1304.082,-210.0,,
1304.097,-210.0,,
1304.112,-210.0,,
1304.127,-210.0,,
1304.142,-210.0,,
1304.157,-210.0,,
1304.172,-210.0,,
1304.187,-210.0,,
1304.202,-77.37,,
1304.217,-86.39,,
1304.232,-75.45,,
1304.247,-70.77,,
1304.262,-210.0,,
1304.277,-210.0,,
1304.292,-210.0,,
1304.307,-210.0,,
1304.322,-210.0,,
1304.337,-210.0,,
1304.352,-210.0,,
1304.367,-74.64,,
1304.382,-74.69,,
1304.397,-210.0,,
1304.412,-210.0,,
1304.427,-68.7,,
1304.442,-67.03,,
1304.457,-66.93,,
1304.472,-68.96,,
1304.487,-67.81,,
1304.502,-66.09,,
1304.517,-66.6,,
1304.532,-71.41,,
1304.547,-68.01,,
1304.562,-64.36,,
1304.577,-64.54,,
1304.592,-67.12,,
1304.607,-67.71,,
1304.622,-65.49,,
1304.637,-65.17,,
1304.652,-66.23,,
1304.667,-66.57,,
1304.682,-65.17,,
1304.697,-65.21,,
1304.712,-68.8,,
1304.727,-70.36,,
1304.742,-66.14,,
1304.757,-64.7,,
1304.772,-65.95,,
1304.787,-67.02,,
1304.802,-65.08,,
1304.817,-64.76,,
1304.832,-65.58,,
1304.847,-66.02,,
1304.862,-63.72,,
1304.877,-63.18,,
1304.892,-64.81,,
1304.907,-65.71,,
1304.922,-64.55,,
1304.937,-64.37,,
1304.952,-65.48,,
1304.967,-65.39,,
1304.982,-65.16,,
1304.997,-65.08,,
1305.012,-65.27,,
1305.027,-69.85,,
1305.042,-71.95,,
1305.057,-65.56,,
1305.072,-65.21,,
1305.087,-67.63,,
1305.102,-73.76,,
1305.117,-66.49,,
1305.132,-66.48,,
1305.147,-67.92,,
1305.162,-72.16,,
1305.177,-67.21,,
1305.192,-65.85,,
1305.207,-74.0,,
1305.222,-210.0,,
1305.237,-72.2,,
1305.252,-69.23,,
1305.267,-73.07,,
1305.282,-210.0,,
1305.297,-70.57,,
1305.312,-66.09,,
1305.327,-68.07,,
1305.342,-210.0,,
1305.357,-67.58,,
1305.372,-66.79,,
1305.387,-68.61,,
1305.402,-72.05,,
1305.417,-68.09,,
1305.432,-66.89,,
1305.447,-66.98,,
1305.462,-210.0,,
1305.477,-75.36,,
1305.492,-67.03,,
1305.507,-68.77,,
1305.522,-71.36,,
1305.537,-71.51,,
1305.552,-67.56,,
1305.567,-69.41,,
1305.582,-83.26,,
1305.597,-210.0,,
1305.612,-67.37,,
1305.627,-67.33,,
1305.642,-69.08,,
1305.657,-73.03,,
1305.672,-69.65,,
1305.687,-68.29,,
1305.702,-73.18,,
1305.717,-79.02,,
1305.732,-68.75,,
1305.747,-67.37,,
1305.762,-71.65,,
1305.777,-75.36,,
1305.792,-72.29,,
1305.807,-68.6,,
1305.822,-68.28,,
1305.837,-81.27,,
1305.852,-69.66,,
1305.867,-67.47,,
1305.882,-69.8,,
1305.897,-73.08,,
1305.912,-78.28,,
1305.927,-71.25,,
1305.942,-68.11,,
1305.957,-72.02,,
1305.972,-210.0,,
1305.987,-68.95,,
1306.002,-68.12,,
1306.017,-72.51,,
1306.032,-70.5,,
1306.047,-70.29,,
1306.062,-68.28,,
1306.077,-69.77,,
1306.092,-210.0,,
1306.107,-68.3,,
1306.122,-66.89,,
1306.137,-68.94,,
1306.152,-74.94,,
1306.167,-71.18,,
1306.182,-210.0,,
1306.197,-210.0,,
1306.212,-72.17,,
1306.227,-75.48,,
1306.242,-68.82,,
1306.257,-70.32,,
1306.272,-72.58,,
1306.287,-74.38,,
1306.302,-210.0,,
1306.317,-210.0,,
1306.332,-210.0,,
1306.347,-69.7,,
1306.362,-210.0,,
1306.377,-73.06,,
1306.392,-73.06,,
1306.407,-79.19,,
1306.422,-70.41,,
1306.437,-210.0,,
1306.452,-79.3,,
1306.467,-69.51,,
1306.482,-78.07,,
1306.497,-75.87,,
1306.512,-68.95,,
1306.527,-210.0,,
1306.542,-78.48,,
1306.557,-74.39,,
1306.572,-210.0,,
1306.587,-70.71,,
1306.602,-70.28,,
1306.617,-210.0,,
1306.632,-210.0,,
1306.647,-72.07,,
1306.662,-74.18,,
1306.677,-71.53,,
1306.692,-70.81,,
1306.707,-71.88,,
1306.722,-66.44,,
1306.737,-69.41,,
1306.752,-71.09,,
1306.767,-67.75,,
1306.782,-69.66,,
1306.797,-72.53,,
1306.812,-70.1,,
1306.827,-72.83,,
1306.842,-80.87,,
1306.857,-77.63,,
1306.872,-210.0,,
1306.887,-210.0,,
1306.902,-210.0,,
1306.917,-210.0,,
1306.932,-210.0,,
1306.947,-210.0,,
1306.962,-210.0,,
1306.977,-210.0,,
1306.992,-75.48,,
1307.007,-76.25,,
1307.022,-71.78,,
1307.037,-69.85,,
1307.052,-68.6,,
1307.067,-69.08,,
1307.082,-69.53,,
1307.097,-68.68,,
1307.112,-68.26,,
1307.127,-68.3,,
1307.142,-69.6,,
1307.157,-69.12,,
1307.172,-72.18,,
1307.187,-67.65,,
1307.202,-66.87,,
1307.217,-69.54,,
1307.232,-70.85,,
1307.247,-68.03,,
1307.262,-68.6,,
1307.277,-74.24,,
1307.292,-70.0,,
1307.307,-64.58,,
1307.322,-64.02,,
1307.337,-64.56,,
1307.352,-66.86,,
1307.367,-64.71,,
1307.382,-64.54,,
1307.397,-66.41,,
1307.412,-66.54,,
1307.427,-65.33,,
1307.442,-63.92,,
1307.457,-66.3,,
1307.472,-68.03,,
1307.487,-67.18,,
1307.502,-65.5,,
1307.517,-68.88,,
1307.532,-68.54,,
1307.547,-65.94,,
1307.562,-64.75,,
1307.577,-65.58,,
1307.592,-71.29,,
1307.607,-66.93,,
1307.622,-63.99,,
1307.637,-64.78,,
1307.652,-66.79,,
1307.667,-68.43,,
1307.682,-66.06,,
1307.697,-66.3,,
1307.712,-69.39,,
1307.727,-71.24,,
1307.742,-66.35,,
1307.757,-66.3,,
1307.772,-74.31,,
1307.787,-73.82,,
1307.802,-65.86,,
1307.817,-66.89,,
1307.832,-68.53,,
1307.847,-70.58,,
1307.862,-67.71,,
1307.877,-65.11,,
1307.892,-67.81,,
1307.907,-68.12,,
1307.922,-65.57,,
1307.937,-64.18,,
1307.952,-67.4,,
1307.967,-67.35,,
1307.982,-64.37,,
1307.997,-63.82,,
1308.012,-65.78,,
1308.027,-68.65,,
1308.042,-67.21,,
1308.057,-65.3,,
1308.072,-67.95,,
1308.087,-71.26,,
1308.102,-67.42,,
1308.117,-66.29,,
1308.132,-70.71,,
1308.147,-71.46,,
1308.162,-67.09,,
1308.177,-64.58,,
1308.192,-64.99,,
1308.207,-67.32,,
1308.222,-66.02,,
1308.237,-63.57,,
1308.252,-65.17,,
1308.267,-66.13,,
1308.282,-64.87,,
1308.297,-64.28,,
1308.312,-66.49,,
1308.327,-66.75,,
1308.342,-67.33,,
1308.357,-64.62,,
1308.372,-64.73,,
1308.387,-69.08,,
1308.402,-67.31,,
1308.417,-64.84,,
1308.432,-68.64,,
1308.447,-70.11,,
1308.462,-65.95,,
1308.477,-66.03,,
1308.492,-66.18,,
1308.507,-66.61,,
1308.522,-65.94,,
1308.537,-63.62,,
1308.552,-64.4,,
1308.567,-66.8,,
1308.582,-65.85,,
1308.597,-63.09,,
1308.612,-64.5,,
1308.627,-65.68,,
1308.642,-64.12,,
1308.657,-64.71,,
1308.672,-64.45,,
1308.687,-65.72,,
1308.702,-66.04,,
1308.717,-63.83,,
1308.732,-63.76,,
1308.747,-65.76,,
1308.762,-65.88,,
1308.777,-63.6,,
1308.792,-64.07,,
1308.807,-67.02,,
1308.822,-65.2,,
1308.837,-65.32,,
1308.852,-63.28,,
1308.867,-63.72,,
1308.882,-64.99,,
1308.897,-63.04,,
1308.912,-62.83,,
1308.927,-64.18,,
1308.942,-64.6,,
1308.957,-62.35,,
1308.972,-62.89,,
1308.987,-63.32,,
1309.002,-65.36,,
1309.017,-64.68,,
1309.032,-62.83,,
1309.047,-64.23,,
1309.062,-66.6,,
1309.077,-63.92,,
1309.092,-63.81,,
1309.107,-65.83,,
1309.122,-66.32,,
1309.137,-65.04,,
1309.152,-64.43,,
1309.167,-65.14,,
1309.182,-70.0,,
1309.198,-66.93,,
1309.212,-65.01,,
1309.227,-66.62,,
1309.242,-70.08,,
1309.257,-65.58,,
1309.272,-64.66,,
1309.287,-64.62,,
1309.302,-66.35,,
1309.318,-64.87,,
1309.333,-64.53,,
1309.347,-64.51,,
1309.362,-67.39,,
1309.377,-66.7,,
1309.392,-64.07,,
1309.407,-65.44,,
1309.422,-68.25,,
1309.438,-66.79,,
1309.453,-65.52,,
1309.468,-66.28,,
1309.483,-69.81,,
1309.497,-66.53,,
1309.512,-65.01,,
1309.527,-65.48,,
1309.542,-70.0,,
1309.557,-67.27,,
1309.573,-64.67,,
1309.588,-65.63,,
1309.603,-67.32,,
1309.618,-69.21,,
1309.632,-66.98,,
1309.647,-67.17,,
1309.662,-70.48,,
1309.677,-68.68,,
1309.693,-64.89,,
1309.708,-64.79,,
1309.723,-67.77,,
1309.738,-67.9,,
1309.753,-65.2,,
1309.768,-65.94,,
1309.782,-66.54,,
1309.797,-68.56,,
1309.813,-65.11,,
1309.828,-65.14,,
1309.843,-66.7,,
1309.858,-69.86,,
1309.873,-66.88,,
1309.888,-65.17,,
1309.903,-69.44,,
1309.917,-71.46,,
1309.932,-66.95,,
1309.948,-66.78,,
1309.963,-68.24,,
1309.978,-72.9,,
1309.993,-71.42,,
1310.008,-66.91,,
1310.023,-67.78,,
1310.038,-210.0,,
1310.053,-69.04,,
1310.068,-65.8,,
1310.083,-69.74,,
1310.098,-69.88,,
1310.113,-65.75,,
1310.128,-64.75,,
1310.143,-63.92,,
1310.158,-66.12,,
1310.173,-66.63,,
1310.188,-63.65,,
1310.203,-64.97,,
1310.218,-67.21,,
1310.233,-65.48,,
1310.248,-64.06,,
1310.263,-66.29,,
1310.278,-66.74,,
1310.293,-67.58,,
1310.308,-65.06,,
1310.323,-65.26,,
1310.338,-69.22,,
1310.353,-68.47,,
1310.368,-65.3,,
1310.383,-66.86,,
1310.398,-74.5,,
1310.413,-67.95,,
1310.428,-66.13,,
1310.443,-66.3,,
1310.458,-65.77,,
1310.473,-65.85,,
1310.488,-63.84,,
1310.503,-63.11,,
1310.518,-65.23,,
1310.533,-65.27,,
1310.548,-63.57,,
1310.563,-64.23,,
1310.578,-66.71,,
1310.593,-65.03,,
1310.608,-65.33,,
1310.623,-64.76,,
1310.638,-64.77,,
1310.653,-64.88,,
1310.668,-63.42,,
1310.683,-63.44,,
1310.698,-65.39,,
1310.713,-66.08,,
1310.728,-63.73,,
1310.743,-63.34,,
1310.758,-65.51,,
1310.773,-63.8,,
1310.788,-63.34,,
1310.803,-63.02,,
1310.818,-64.29,,
1310.833,-64.14,,
1310.848,-63.52,,
1310.863,-62.38,,
1310.878,-63.47,,
1310.893,-65.82,,
1310.908,-63.72,,
1310.923,-63.05,,
1310.938,-64.8,,
1310.953,-64.5,,
1310.968,-64.31,,
1310.983,-63.6,,
1310.998,-65.04,,
1311.013,-64.91,,
1311.028,-64.8,,
1311.043,-62.6,,
1311.058,-63.42,,
1311.073,-64.95,,
1311.088,-62.85,,
1311.103,-62.48,,
1311.118,-63.49,,
1311.133,-63.99,,
1311.148,-64.2,,
1311.163,-63.26,,
1311.178,-63.74,,
1311.193,-65.52,,
1311.208,-65.41,,
1311.223,-63.28,,
1311.238,-64.02,,
1311.253,-66.17,,
1311.268,-64.12,,
1311.283,-63.95,,
1311.298,-65.18,,
1311.313,-67.19,,
1311.328,-65.86,,
1311.343,-63.46,,
1311.358,-65.4,,
1311.373,-67.62,,
1311.388,-67.03,,
1311.403,-64.03,,
1311.418,-64.51,,
1311.433,-68.04,,
1311.448,-65.22,,
1311.463,-64.15,,
1311.478,-65.7,,
1311.493,-70.35,,
1311.508,-68.67,,
1311.523,-65.45,,
1311.538,-67.18,,
1311.553,-73.03,,
1311.568,-78.22,,
1311.583,-68.38,,
1311.598,-67.77,,
1311.613,-210.0,,
1311.628,-72.42,,
1311.643,-67.36,,
1311.658,-70.96,,
1311.673,-210.0,,
1311.688,-210.0,,
1311.703,-69.61,,
1311.718,-72.47,,
1311.733,-210.0,,
1311.748,-210.0,,
1311.763,-75.04,,
1311.778,-73.23,,
1311.793,-210.0,,
1311.808,-210.0,,
1311.823,-75.57,,
1311.838,-210.0,,
1311.853,-210.0,,
1311.868,-210.0,,
1311.883,-210.0,,
1311.898,-210.0,,
1311.913,-210.0,,
1311.928,-210.0,,
1311.943,-210.0,,
1311.958,-210.0,,
1311.973,-210.0,,
1311.988,-210.0,,
1312.003,-72.99,,
1312.018,-210.0,,
1312.033,-210.0,,
1312.048,-210.0,,
1312.063,-210.0,,
1312.078,-210.0,,
1312.093,-210.0,,
1312.108,-210.0,,
1312.123,-210.0,,
1312.138,-210.0,,
1312.153,-210.0,,
1312.168,-210.0,,
1312.183,-210.0,,
1312.198,-210.0,,
1312.213,-210.0,,
1312.228,-210.0,,
1312.243,-210.0,,
1312.258,-73.62,,
1312.273,-210.0,,
1312.288,-210.0,,
1312.303,-210.0,,
1312.318,-74.27,,
1312.333,-210.0,,
1312.348,-210.0,,
1312.363,-79.48,,
1312.378,-70.39,,
1312.393,-77.52,,
1312.408,-210.0,,
1312.423,-210.0,,
1312.438,-66.59,,
1312.453,-66.37,,
1312.468,-210.0,,
1312.483,-73.46,,
1312.498,-66.3,,
1312.513,-71.01,,
1312.528,-210.0,,
1312.543,-68.85,,
1312.558,-67.73,,
1312.573,-67.71,,
1312.588,-66.65,,
1312.603,-68.45,,
1312.618,-66.91,,
1312.633,-67.82,,
1312.648,-80.54,,
1312.663,-70.71,,
1312.678,-67.04,,
1312.693,-69.81,,
1312.708,-210.0,,
1312.723,-70.15,,
1312.738,-69.08,,
1312.753,-70.05,,
1312.768,-71.68,,
1312.783,-74.97,,
1312.798,-73.34,,
1312.813,-210.0,,
1312.828,-210.0,,
1312.843,-72.9,,
1312.858,-67.7,,
1312.873,-75.65,,
1312.888,-210.0,,
1312.903,-68.46,,
1312.918,-66.46,,
1312.933,-66.6,,
1312.948,-67.68,,
1312.963,-66.85,,
1312.978,-66.71,,
1312.993,-68.78,,
1313.008,-69.18,,
1313.023,-68.18,,
1313.038,-67.59,,
1313.053,-69.33,,
1313.068,-210.0,,
1313.083,-71.06,,
1313.098,-69.04,,
1313.113,-71.35,,
1313.128,-73.7,,
1313.143,-71.24,,
1313.158,-70.99,,
1313.173,-69.97,,
1313.188,-68.88,,
1313.203,-67.59,,
1313.218,-67.43,,
1313.233,-70.51,,
1313.248,-68.33,,
1313.263,-70.25,,
1313.278,-81.8,,
1313.293,-210.0,,
1313.308,-210.0,,
1313.323,-76.75,,
1313.338,-72.89,,
1313.353,-71.15,,
1313.368,-73.15,,
1313.383,-75.39,,
1313.398,-74.27,,
1313.413,-75.73,,
1313.428,-71.74,,
1313.443,-210.0,,
1313.458,-210.0,,
1313.473,-210.0,,
1313.488,-76.08,,
1313.503,-210.0,,
1313.518,-81.0,,
1313.533,-210.0,,
1313.548,-76.87,,
1313.563,-73.55,,
1313.578,-210.0,,
1313.593,-210.0,,
1313.608,-210.0,,
1313.623,-77.63,,
1313.638,-210.0,,
1313.653,-68.16,,
1313.668,-68.96,,
1313.683,-67.59,,
1313.698,-69.57,,
1313.713,-69.17,,
1313.728,-67.46,,
1313.743,-67.84,,
1313.758,-67.94,,
1313.773,-66.8,,
1313.788,-67.03,,
1313.803,-67.6,,
1313.818,-67.5,,
1313.833,-65.77,,
1313.848,-65.89,,
1313.863,-66.42,,
1313.878,-66.55,,
1313.893,-66.33,,
1313.908,-66.12,,
1313.923,-67.13,,
1313.938,-69.22,,
1313.953,-66.17,,
1313.968,-66.65,,
1313.983,-67.39,,
1313.998,-68.39,,
1314.013,-68.31,,
1314.028,-68.52,,
1314.043,-66.41,,
1314.058,-67.76,,
1314.073,-66.58,,
1314.088,-65.98,,
1314.103,-66.81,,
1314.118,-66.88,,
1314.133,-65.04,,
1314.148,-65.54,,
1314.163,-66.83,,
1314.178,-66.36,,
1314.193,-65.67,,
1314.208,-65.68,,
1314.223,-64.47,,
1314.238,-64.75,,
1314.253,-66.11,,
1314.268,-65.52,,
1314.283,-64.17,,
1314.298,-63.87,,
1314.313,-63.3,,
1314.328,-64.36,,
1314.343,-64.59,,
1314.358,-64.78,,
1314.373,-64.68,,
1314.388,-66.18,,
1314.403,-64.05,,
1314.418,-63.88,,
1314.433,-66.43,,
1314.448,-65.9,,
1314.463,-63.66,,
1314.478,-64.06,,
1314.493,-65.13,,
1314.508,-64.37,,
1314.523,-63.68,,
1314.538,-63.73,,
1314.553,-64.56,,
1314.568,-64.66,,
1314.583,-63.06,,
1314.598,-62.6,,
1314.613,-63.88,,
1314.628,-64.82,,
1314.643,-63.13,,
1314.658,-63.84,,
1314.673,-65.03,,
1314.688,-66.41,,
1314.703,-64.37,,
1314.718,-64.1,,
1314.733,-65.92,,
1314.748,-65.39,,
1314.763,-63.71,,
1314.778,-64.7,,
1314.793,-65.83,,
1314.808,-66.35,,
1314.823,-63.22,,
1314.838,-64.02,,
1314.853,-66.04,,
1314.868,-65.99,,
1314.883,-64.12,,
1314.898,-63.88,,
1314.913,-65.42,,
1314.928,-65.32,,
1314.943,-63.09,,
1314.958,-64.65,,
1314.973,-65.63,,
1314.988,-65.18,,
1315.003,-63.78,,
1315.018,-63.32,,
1315.033,-65.44,,
1315.048,-65.93,,
1315.063,-64.01,,
1315.078,-63.72,,
1315.093,-65.23,,
1315.108,-64.8,,
1315.123,-63.41,,
1315.138,-64.84,,
1315.153,-66.52,,
1315.168,-64.06,,
1315.183,-62.72,,
1315.198,-65.0,,
1315.213,-65.81,,
1315.228,-68.47,,
1315.243,-65.8,,
1315.258,-65.45,,
1315.273,-70.35,,
1315.288,-70.01,,
1315.303,-66.13,,
1315.318,-67.22,,
1315.333,-69.2,,
1315.348,-66.99,,
1315.363,-64.91,,
1315.378,-67.07,,
1315.393,-65.03,,
1315.408,-66.0,,
1315.423,-67.0,,
1315.438,-65.59,,
1315.453,-67.68,,
1315.468,-67.73,,
1315.483,-66.46,,
1315.498,-67.1,,
1315.513,-69.55,,
1315.528,-70.89,,
1315.543,-67.56,,
1315.558,-70.75,,
1315.573,-74.49,,
1315.588,-73.21,,
1315.603,-210.0,,
1315.618,-210.0,,
1315.633,-71.27,,
1315.648,-73.5,,
1315.663,-70.68,,
1315.678,-69.22,,
1315.693,-72.03,,
1315.708,-72.12,,
1315.723,-68.11,,
1315.738,-68.16,,
1315.753,-68.61,,
1315.768,-68.9,,
1315.783,-67.56,,
1315.798,-69.96,,
1315.813,-65.57,,
1315.828,-67.23,,
1315.843,-70.72,,
1315.858,-67.03,,
1315.873,-69.22,,
1315.888,-68.74,,
1315.903,-67.05,,
1315.918,-67.63,,
1315.933,-68.88,,
1315.948,-68.25,,
1315.963,-67.35,,
1315.978,-68.26,,
1315.993,-67.1,,
1316.008,-66.49,,
1316.023,-73.32,,
1316.038,-67.81,,
1316.053,-66.59,,
1316.068,-68.31,,
1316.083,-73.33,,
1316.098,-69.7,,
1316.113,-210.0,,
1316.128,-77.77,,
1316.143,-71.08,,
1316.158,-74.49,,
1316.173,-76.97,,
1316.188,-210.0,,
1316.203,-72.47,,
1316.218,-210.0,,
1316.233,-69.89,,
1316.248,-73.43,,
1316.263,-210.0,,
1316.278,-71.99,,
1316.293,-68.67,,
1316.308,-68.95,,
1316.323,-67.55,,
1316.338,-68.16,,
1316.353,-67.6,,
1316.368,-67.94,,
1316.383,-66.16,,
1316.398,-68.52,,
1316.413,-67.45,,
1316.428,-66.42,,
1316.443,-68.16,,
1316.458,-65.93,,
1316.473,-65.28,,
1316.488,-67.66,,
1316.503,-67.74,,
1316.518,-66.0,,
1316.533,-67.33,,
1316.548,-67.08,,
1316.563,-65.43,,
1316.578,-66.78,,
1316.593,-66.88,,
1316.608,-65.29,,
1316.623,-64.86,,
1316.638,-66.37,,
1316.653,-65.62,,
1316.668,-66.22,,
1316.683,-67.7,,
1316.698,-65.15,,
1316.713,-64.87,,
1316.728,-67.44,,
1316.743,-67.12,,
1316.758,-65.44,,
1316.773,-66.56,,
1316.788,-69.1,,
1316.803,-67.29,,
1316.818,-70.22,,
1316.833,-69.57,,
1316.848,-67.19,,
1316.863,-72.63,,
1316.878,-67.95,,
1316.893,-67.51,,
1316.908,-73.09,,
1316.923,-72.69,,
1316.938,-67.1,,
1316.953,-68.12,,
1316.968,-70.76,,
1316.983,-66.7,,
1316.998,-66.06,,
1317.013,-66.55,,
1317.028,-67.01,,
1317.043,-65.58,,
1317.058,-64.86,,
1317.073,-66.39,,
1317.088,-65.8,,
1317.103,-65.85,,
1317.118,-64.2,,
1317.133,-64.6,,
1317.148,-66.83,,
1317.163,-64.66,,
1317.178,-64.03,,
1317.193,-64.84,,
1317.208,-65.56,,
1317.224,-63.15,,
1317.238,-63.34,,
1317.253,-64.36,,
1317.268,-63.41,,
1317.283,-62.56,,
1317.298,-62.85,,
1317.313,-64.86,,
1317.328,-64.87,,
1317.344,-63.16,,
1317.359,-63.14,,
1317.373,-64.46,,
1317.388,-66.01,,
1317.403,-63.87,,
1317.418,-64.06,,
1317.433,-66.6,,
1317.448,-66.13,,
1317.464,-64.14,,
1317.479,-65.6,,
1317.494,-68.18,,
1317.509,-65.14,,
1317.523,-64.85,,
1317.538,-65.2,,
1317.553,-67.59,,
1317.568,-66.68,,
1317.583,-64.01,,
1317.599,-65.84,,
1317.614,-69.43,,
1317.629,-69.55,,
1317.644,-66.11,,
1317.658,-66.85,,
1317.673,-75.44,,
1317.688,-67.7,,
1317.703,-65.74,,
1317.719,-69.22,,
1317.734,-77.22,,
1317.749,-66.57,,
1317.764,-68.4,,
1317.779,-79.08,,
1317.794,-70.61,,
1317.808,-66.46,,
1317.823,-64.8,,
1317.839,-65.0,,
1317.854,-67.26,,
1317.869,-64.4,,
1317.884,-63.61,,
1317.899,-65.15,,
1317.914,-66.46,,
1317.929,-64.04,,
1317.944,-64.23,,
1317.958,-66.9,,
1317.974,-65.06,,
1317.989,-64.13,,
1318.004,-64.68,,
1318.019,-67.97,,
1318.034,-67.42,,
1318.049,-66.7,,
1318.064,-67.36,,
1318.079,-68.25,,
1318.094,-68.63,,
1318.109,-65.4,,
1318.124,-65.9,,
1318.139,-70.09,,
1318.154,-66.39,,
1318.169,-64.61,,
1318.184,-65.43,,
1318.199,-68.46,,
1318.214,-65.5,,
1318.229,-65.46,,
1318.244,-68.0,,
1318.259,-67.77,,
1318.274,-69.95,,
1318.289,-69.59,,
1318.304,-70.51,,
1318.319,-68.65,,
1318.334,-70.37,,
1318.349,-69.72,,
1318.364,-72.78,,
1318.379,-210.0,,
1318.394,-71.86,,
1318.409,-69.77,,
1318.424,-210.0,,
1318.439,-210.0,,
1318.454,-70.25,,
1318.469,-77.21,,
1318.484,-69.01,,
1318.499,-66.87,,
1318.514,-69.41,,
1318.529,-68.17,,
1318.544,-67.6,,
1318.559,-67.55,,
1318.574,-70.4,,
1318.589,-71.91,,
1318.604,-67.83,,
1318.619,-68.6,,
1318.634,-65.99,,
1318.649,-65.91,,
1318.664,-67.83,,
1318.679,-67.29,,
1318.694,-65.98,,
1318.709,-67.57,,
1318.724,-70.7,,
1318.739,-67.7,,
1318.754,-68.93,,
1318.769,-67.83,,
1318.784,-65.78,,
1318.799,-67.15,,
1318.814,-67.09,,
1318.829,-66.82,,
1318.844,-71.07,,
1318.859,-71.52,,
1318.874,-69.05,,
1318.889,-70.5,,
1318.904,-75.2,,
1318.919,-68.65,,
1318.934,-67.37,,
1318.949,-69.73,,
1318.964,-72.71,,
1318.979,-69.41,,
1318.994,-69.06,,
1319.009,-69.09,,
1319.024,-69.3,,
1319.039,-68.73,,
1319.054,-66.64,,
1319.069,-67.56,,
1319.084,-68.22,,
1319.099,-66.92,,
1319.114,-66.02,,
1319.129,-67.06,,
1319.144,-67.16,,
1319.159,-65.87,,
1319.174,-65.77,,
1319.189,-66.35,,
1319.204,-65.8,,
1319.219,-66.36,,
1319.234,-66.26,,
1319.249,-66.2,,
1319.264,-67.71,,
1319.279,-67.14,,
1319.294,-66.61,,
1319.309,-66.66,,
1319.324,-67.11,,
1319.339,-67.73,,
1319.354,-66.7,,
1319.369,-66.79,,
1319.384,-67.04,,
1319.399,-65.33,,
1319.414,-65.31,,
1319.429,-65.82,,
1319.444,-64.72,,
1319.459,-64.21,,
1319.474,-63.11,,
1319.489,-65.49,,
1319.504,-66.13,,
1319.519,-63.75,,
1319.534,-64.65,,
1319.549,-67.15,,
1319.564,-67.66,,
1319.579,-66.07,,
1319.594,-65.26,,
1319.609,-67.01,,
1319.624,-67.17,,
1319.639,-66.42,,
1319.654,-66.74,,
1319.669,-68.08,,
1319.684,-67.05,,
1319.699,-65.8,,
1319.714,-66.94,,
1319.729,-67.72,,
1319.744,-66.02,,
1319.759,-64.66,,
1319.774,-65.39,,
1319.789,-68.67,,
1319.804,-65.23,,
1319.819,-65.21,,
1319.834,-65.8,,
1319.849,-66.05,,
1319.864,-65.87,,
1319.879,-65.03,,
1319.894,-65.65,,
1319.909,-66.53,,
1319.924,-67.17,,
1319.939,-66.52,,
1319.954,-66.66,,
1319.969,-66.25,,
1319.984,-66.28,,
1319.999,-65.98,,
1320.014,-70.32,,
1320.029,-74.89,,
1320.044,-66.54,,
1320.059,-66.31,,
1320.074,-67.68,,
1320.089,-69.09,,
1320.104,-68.77,,
1320.119,-72.25,,
1320.134,-72.5,,
1320.149,-70.08,,
1320.164,-75.84,,
1320.179,-70.33,,
1320.194,-72.9,,
1320.209,-76.86,,
1320.224,-73.93,,
1320.239,-79.38,,
1320.254,-77.45,,
1320.269,-210.0,,
1320.284,-68.42,,
1320.299,-67.99,,
1320.314,-74.43,,
1320.329,-73.4,,
1320.344,-66.01,,
1320.359,-67.42,,
1320.374,-75.55,,
1320.389,-69.62,,
1320.404,-72.49,,
1320.419,-75.12,,
1320.434,-75.26,,
1320.449,-73.25,,
1320.464,-75.84,,
1320.479,-210.0,,
1320.494,-210.0,,
1320.509,-210.0,,
1320.524,-210.0,,
1320.539,-210.0,,
1320.554,-79.16,,
1320.569,-71.01,,
1320.584,-66.93,,
1320.599,-70.07,,
1320.614,-210.0,,
1320.629,-69.24,,
1320.644,-66.85,,
1320.659,-68.15,,
1320.674,-73.62,,
1320.689,-66.47,,
1320.704,-67.63,,
1320.719,-68.03,,
1320.734,-65.58,,
1320.749,-67.34,,
1320.764,-67.27,,
1320.779,-66.74,,
1320.794,-66.31,,
1320.809,-68.38,,
1320.824,-66.62,,
1320.839,-66.56,,
1320.854,-69.35,,
1320.869,-67.48,,
1320.884,-66.36,,
1320.899,-67.94,,
1320.914,-69.72,,
1320.929,-66.19,,
1320.944,-66.19,,
1320.959,-67.92,,
1320.974,-66.77,,
1320.989,-65.27,,
1321.004,-65.88,,
1321.019,-66.64,,
1321.034,-65.19,,
1321.049,-64.81,,
1321.064,-66.7,,
1321.079,-67.93,,
1321.094,-69.21,,
1321.109,-66.19,,
1321.124,-65.24,,
1321.139,-68.19,,
1321.154,-67.63,,
1321.169,-64.25,,
1321.184,-66.34,,
1321.199,-70.39,,
1321.214,-67.18,,
1321.229,-65.14,,
1321.244,-66.35,,
1321.259,-68.39,,
1321.274,-64.46,,
1321.289,-64.4,,
1321.304,-66.6,,
1321.319,-65.51,,
1321.334,-63.72,,
1321.349,-65.4,,
1321.364,-67.62,,
1321.379,-65.31,,
1321.394,-64.43,,
1321.409,-63.75,,
1321.424,-64.73,,
1321.439,-65.02,,
1321.454,-64.32,,
1321.469,-63.67,,
1321.484,-66.52,,
1321.499,-66.89,,
1321.514,-63.63,,
1321.529,-64.12,,
1321.544,-66.74,,
1321.559,-65.67,,
1321.574,-63.73,,
1321.589,-65.22,,
1321.604,-67.72,,
1321.619,-64.94,,
1321.634,-64.05,,
1321.649,-65.77,,
1321.664,-68.44,,
1321.679,-63.81,,
1321.694,-64.46,,
1321.709,-66.39,,
1321.724,-65.96,,
1321.739,-65.46,,
1321.754,-63.51,,
1321.769,-64.05,,
1321.784,-67.31,,
1321.799,-65.43,,
1321.814,-63.61,,
1321.829,-64.55,,
1321.844,-66.8,,
1321.859,-64.56,,
1321.874,-63.59,,
1321.889,-65.44,,
1321.904,-65.98,,
1321.919,-63.23,,
1321.934,-63.36,,
1321.949,-65.08,,
1321.964,-64.1,,
1321.979,-63.29,,
1321.994,-64.49,,
1322.009,-65.63,,
1322.024,-64.29,,
1322.039,-63.18,,
1322.054,-64.09,,
1322.069,-65.44,,
1322.084,-64.4,,
1322.099,-62.8,,
1322.114,-63.18,,
1322.129,-64.82,,
1322.144,-63.16,,
1322.159,-62.02,,
1322.174,-63.77,,
1322.189,-64.0,,
1322.204,-62.53,,
1322.219,-62.35,,
1322.234,-63.89,,
1322.249,-63.2,,
1322.264,-62.26,,
1322.279,-63.21,,
1322.294,-64.54,,
1322.309,-64.27,,
1322.324,-63.7,,
1322.339,-64.39,,
1322.354,-65.78,,
1322.369,-64.55,,
1322.384,-63.82,,
1322.399,-64.47,,
1322.414,-65.98,,
1322.429,-64.72,,
1322.444,-64.11,,
1322.459,-64.29,,
1322.474,-66.82,,
1322.489,-64.04,,
1322.504,-62.95,,
1322.519,-65.42,,
1322.534,-65.88,,
1322.549,-63.47,,
1322.564,-63.01,,
1322.579,-65.43,,
1322.594,-64.69,,
1322.609,-63.55,,
1322.624,-62.85,,
1322.639,-63.88,,
1322.654,-65.05,,
1322.669,-62.98,,
1322.684,-63.49,,
1322.699,-65.79,,
1322.714,-64.27,,
1322.729,-63.85,,
1322.744,-64.64,,
1322.759,-68.78,,
1322.774,-67.46,,
1322.789,-64.47,,
1322.804,-65.85,,
1322.819,-68.9,,
1322.834,-66.56,,
1322.849,-65.05,,
1322.864,-67.92,,
1322.879,-69.77,,
1322.894,-65.61,,
1322.909,-66.36,,
1322.924,-79.74,,
1322.939,-81.17,,
1322.954,-67.48,,
1322.969,-70.16,,
1322.984,-210.0,,
1322.999,-210.0,,
1323.014,-210.0,,
1323.029,-210.0,,
1323.044,-210.0,,
1323.059,-210.0,,
1323.074,-80.67,,
1323.089,-75.78,,
1323.104,-210.0,,
1323.119,-210.0,,
1323.134,-73.2,,
1323.149,-80.71,,
1323.164,-210.0,,
1323.179,-210.0,,
1323.194,-72.44,,
1323.209,-210.0,,
1323.224,-210.0,,
1323.239,-79.4,,
1323.254,-210.0,,
1323.269,-210.0,,
1323.284,-210.0,,
1323.299,-210.0,,
1323.314,-210.0,,
1323.329,-210.0,,
1323.344,-210.0,,
1323.359,-80.31,,
1323.374,-68.39,,
1323.389,-210.0,,
1323.404,-210.0,,
1323.419,-71.69,,
1323.434,-68.59,,
1323.449,-210.0,,
1323.464,-210.0,,
1323.479,-68.49,,
1323.494,-71.28,,
1323.509,-210.0,,
1323.524,-78.04,,
1323.539,-69.49,,
1323.554,-210.0,,
1323.569,-210.0,,
1323.584,-72.3,,
1323.599,-79.11,,
1323.614,-210.0,,
1323.629,-210.0,,
1323.644,-210.0,,
1323.659,-210.0,,
1323.674,-210.0,,
1323.689,-210.0,,
1323.704,-210.0,,
1323.719,-210.0,,
1323.734,-210.0,,
1323.749,-210.0,,
1323.764,-210.0,,
1323.779,-81.61,,
1323.794,-210.0,,
1323.809,-210.0,,
1323.824,-72.62,,
1323.839,-210.0,,
1323.854,-210.0,,
1323.869,-210.0,,
1323.884,-210.0,,
1323.899,-210.0,,
1323.914,-210.0,,
1323.929,-210.0,,
1323.944,-210.0,,
1323.959,-210.0,,
1323.974,-210.0,,
1323.989,-210.0,,
1324.004,-69.15,,
1324.019,-81.72,,
1324.034,-210.0,,
1324.049,-69.97,,
1324.064,-69.02,,
1324.079,-210.0,,
1324.094,-72.58,,
1324.109,-68.02,,
1324.124,-72.96,,
1324.139,-210.0,,
1324.154,-210.0,,
1324.169,-68.55,,
1324.184,-70.02,,
1324.199,-210.0,,
1324.214,-210.0,,
1324.229,-71.46,,
1324.244,-210.0,,
1324.259,-210.0,,
1324.274,-210.0,,
1324.289,-97.02,,
1324.304,-210.0,,
1324.319,-210.0,,
1324.334,-73.3,,
1324.349,-74.99,,
1324.364,-210.0,,
1324.379,-210.0,,
1324.394,-210.0,,
1324.409,-210.0,,
1324.424,-210.0,,
1324.439,-210.0,,
1324.454,-210.0,,
1324.469,-210.0,,
1324.484,-210.0,,
1324.499,-210.0,,
1324.514,-210.0,,
1324.529,-210.0,,
1324.544,-210.0,,
1324.559,-210.0,,
1324.574,-210.0,,
1324.589,-210.0,,
1324.604,-210.0,,
1324.619,-210.0,,
1324.634,-210.0,,
1324.649,-210.0,,
1324.664,-210.0,,
1324.679,-210.0,,
1324.694,-210.0,,
1324.709,-210.0,,
1324.724,-210.0,,
1324.739,-210.0,,
1324.754,-70.84,,
1324.769,-210.0,,
1324.784,-210.0,,
1324.799,-77.87,,
1324.814,-71.34,,
1324.829,-210.0,,
1324.844,-210.0,,
1324.859,-71.11,,
1324.874,-80.42,,
1324.889,-210.0,,
1324.904,-210.0,,
1324.919,-83.07,,
1324.934,-73.3,,
1324.949,-210.0,,
1324.964,-210.0,,
1324.979,-71.27,,
1324.994,-77.18,,
1325.009,-210.0,,
1325.024,-73.83,,
1325.039,-70.17,,
1325.054,-210.0,,
1325.069,-210.0,,
1325.084,-77.87,,
1325.099,-210.0,,
1325.114,-210.0,,
1325.129,-210.0,,
1325.144,-210.0,,
1325.159,-77.09,,
1325.174,-210.0,,
1325.189,-210.0,,
1325.204,-73.29,,
1325.219,-210.0,,
1325.234,-210.0,,
1325.25,-210.0,,
1325.264,-69.51,,
1325.279,-68.33,,
1325.294,-83.96,,
1325.309,-210.0,,
1325.324,-68.15,,
1325.339,-68.87,,
1325.354,-210.0,,
1325.37,-72.26,,
1325.385,-66.26,,
1325.4,-69.05,,
1325.414,-210.0,,
1325.429,-67.71,,
1325.444,-65.58,,
1325.459,-75.23,,
1325.474,-210.0,,
1325.49,-67.78,,
1325.505,-67.8,,
1325.52,-70.25,,
1325.535,-73.1,,
1325.549,-67.89,,
1325.564,-67.35,,
1325.579,-69.73,,
1325.594,-70.76,,
1325.609,-66.39,,
1325.625,-68.89,,
1325.64,-71.62,,
1325.655,-70.08,,
1325.67,-67.71,,
1325.685,-75.53,,
1325.699,-70.52,,
1325.714,-68.9,,
1325.729,-65.51,,
1325.745,-66.56,,
1325.76,-74.77,,
1325.775,-68.41,,
1325.79,-65.78,,
1325.805,-67.31,,
1325.82,-88.15,,
1325.834,-67.33,,
1325.849,-65.95,,
1325.865,-70.27,,
1325.88,-69.08,,
1325.895,-67.11,,
1325.91,-64.77,,
1325.925,-67.22,,
1325.94,-70.11,,
1325.955,-66.8,,
1325.97,-66.73,,
1325.984,-73.89,,
1326.0,-72.08,,
1326.015,-66.98,,
1326.03,-69.49,,
1326.045,-210.0,,
1326.06,-73.73,,
1326.075,-68.35,,
1326.09,-74.55,,
1326.105,-74.29,,
1326.12,-68.64,,
1326.135,-68.16,,
1326.15,-70.69,,
1326.165,-69.28,,
1326.18,-66.16,,
1326.195,-67.55,,
1326.21,-71.31,,
1326.225,-67.87,,
1326.24,-65.74,,
1326.255,-69.62,,
1326.27,-69.93,,
1326.285,-73.27,,
1326.3,-74.2,,
1326.315,-76.05,,
1326.33,-71.86,,
1326.345,-74.72,,
1326.36,-68.25,,
1326.375,-75.37,,
1326.39,-210.0,,
1326.405,-76.84,,
1326.42,-70.5,,
1326.435,-210.0,,
1326.45,-210.0,,
1326.465,-71.69,,
1326.48,-69.26,,
1326.495,-210.0,,
1326.51,-74.8,,
1326.525,-66.98,,
1326.54,-69.36,,
1326.555,-76.63,,
1326.57,-68.32,,
1326.585,-67.36,,
1326.6,-73.99,,
1326.615,-73.35,,
1326.63,-67.93,,
1326.645,-67.99,,
1326.66,-74.05,,
1326.675,-69.35,,
1326.69,-66.16,,
1326.705,-70.17,,
1326.72,-71.43,,
1326.735,-70.39,,
1326.75,-210.0,,
1326.765,-75.64,,
1326.78,-69.82,,
1326.795,-71.99,,
1326.81,-210.0,,
1326.825,-71.92,,
1326.84,-69.32,,
1326.855,-75.69,,
1326.87,-210.0,,
1326.885,-73.15,,
1326.9,-75.86,,
1326.915,-210.0,,
1326.93,-210.0,,
1326.945,-70.66,,
1326.96,-76.26,,
1326.975,-74.83,,
1326.99,-72.71,,
1327.005,-210.0,,
1327.02,-210.0,,
1327.035,-72.03,,
1327.05,-70.9,,
1327.065,-79.64,,
1327.08,-72.21,,
1327.095,-67.18,,
1327.11,-74.43,,
1327.125,-78.23,,
1327.14,-68.59,,
1327.155,-67.67,,
1327.17,-80.02,,
1327.185,-73.42,,
1327.2,-67.63,,
1327.215,-70.0,,
1327.23,-71.26,,
1327.245,-69.88,,
1327.26,-67.3,,
1327.275,-73.63,,
1327.29,-72.5,,
1327.305,-67.96,,
1327.32,-68.06,,
1327.335,-72.95,,
1327.35,-69.83,,
1327.365,-69.38,,
1327.38,-69.06,,
1327.395,-66.88,,
1327.41,-67.42,,
1327.425,-67.9,,
1327.44,-67.44,,
1327.455,-65.85,,
1327.47,-67.64,,
1327.485,-68.11,,
1327.5,-67.3,,
1327.515,-66.46,,
1327.53,-68.15,,
1327.545,-69.57,,
1327.56,-70.29,,
1327.575,-210.0,,
1327.59,-79.91,,
1327.605,-69.1,,
1327.62,-210.0,,
1327.635,-210.0,,
1327.65,-72.76,,
1327.665,-68.42,,
1327.68,-210.0,,
1327.695,-73.02,,
1327.71,-66.31,,
1327.725,-67.55,,
1327.74,-71.58,,
1327.755,-67.8,,
1327.77,-65.59,,
1327.785,-69.07,,
1327.8,-68.99,,
1327.815,-65.4,,
1327.83,-65.89,,
1327.845,-69.14,,
1327.86,-67.65,,
1327.875,-65.21,,
1327.89,-67.43,,
1327.905,-69.11,,
1327.92,-67.83,,
1327.935,-66.68,,
1327.95,-70.98,,
1327.965,-69.66,,
1327.98,-68.0,,
1327.995,-67.46,,
1328.01,-66.68,,
1328.025,-66.16,,
1328.04,-67.3,,
1328.055,-68.75,,
1328.07,-67.09,,
1328.085,-66.41,,
1328.1,-70.75,,
1328.115,-68.87,,
1328.13,-67.24,,
1328.145,-69.4,,
1328.16,-74.88,,
1328.175,-69.28,,
1328.19,-76.24,,
1328.205,-73.05,,
1328.22,-68.71,,
1328.235,-73.15,,
1328.25,-210.0,,
1328.265,-71.4,,
1328.28,-68.32,,
1328.295,-71.34,,
1328.31,-70.91,,
1328.325,-67.69,,
1328.34,-67.58,,
1328.355,-68.88,,
1328.37,-70.94,,
1328.385,-68.08,,
1328.4,-71.82,,
1328.415,-74.23,,
1328.43,-72.64,,
1328.445,-71.07,,
1328.46,-210.0,,
1328.475,-72.2,,
1328.49,-74.53,,
1328.505,-210.0,,
1328.52,-210.0,,
1328.535,-210.0,,
1328.55,-210.0,,
1328.565,-210.0,,
1328.58,-68.55,,
1328.595,-70.69,,
1328.61,-210.0,,
1328.625,-69.47,,
1328.64,-67.8,,
1328.655,-70.33,,
1328.67,-210.0,,
1328.685,-68.36,,
1328.7,-67.77,,
1328.715,-210.0,,
1328.73,-210.0,,
1328.745,-70.21,,
1328.76,-72.41,,
1328.775,-210.0,,
1328.79,-210.0,,
1328.805,-210.0,,
1328.82,-210.0,,
1328.835,-210.0,,
1328.85,-210.0,,
1328.865,-210.0,,
1328.88,-210.0,,
1328.895,-210.0,,
1328.91,-210.0,,
1328.925,-73.15,,
1328.94,-71.32,,
1328.955,-73.34,,
1328.97,-70.24,,
1328.985,-71.05,,
1329.0,-77.64,,
1329.015,-76.63,,
1329.03,-71.07,,
1329.045,-75.75,,
1329.06,-76.26,,
1329.075,-74.12,,
1329.09,-210.0,,
1329.105,-75.62,,
1329.12,-72.53,,
1329.135,-73.22,,
1329.15,-74.14,,
1329.165,-74.78,,
1329.18,-81.55,,
1329.195,-68.04,,
1329.21,-68.21,,
1329.225,-77.03,,
1329.24,-68.39,,
1329.255,-66.51,,
1329.27,-68.48,,
1329.285,-71.47,,
1329.3,-66.99,,
1329.315,-66.53,,
1329.33,-69.65,,
1329.345,-69.29,,
1329.36,-66.5,,
1329.375,-67.33,,
1329.39,-71.82,,
1329.405,-69.53,,
1329.42,-71.89,,
1329.435,-72.78,,
1329.45,-74.28,,
1329.465,-72.1,,
1329.48,-74.84,,
1329.495,-74.69,,
1329.51,-69.98,,
1329.525,-72.32,,
1329.54,-70.99,,
1329.555,-69.01,,
1329.57,-69.67,,
1329.585,-70.95,,
1329.6,-69.12,,
1329.615,-67.48,,
1329.63,-70.59,,
1329.645,-68.65,,
1329.66,-69.22,,
1329.675,-67.15,,
1329.69,-68.32,,
1329.705,-70.24,,
1329.72,-67.57,,
1329.735,-69.52,,
1329.75,-68.53,,
1329.765,-68.38,,
1329.78,-65.87,,
1329.795,-68.12,,
1329.81,-65.68,,
1329.825,-66.52,,
1329.84,-69.04,,
1329.855,-66.01,,
1329.87,-64.92,,
1329.885,-65.29,,
1329.9,-66.87,,
1329.915,-64.97,,
1329.93,-65.2,,
1329.945,-69.57,,
1329.96,-66.16,,
1329.975,-65.23,,
1329.99,-66.32,,
1330.005,-67.87,,
1330.02,-65.11,,
1330.035,-66.02,,
1330.05,-68.4,,
1330.065,-67.87,,
1330.08,-66.01,,
1330.095,-66.42,,
1330.11,-70.14,,
1330.125,-66.86,,
1330.14,-65.69,,
1330.155,-66.86,,
1330.17,-67.55,,
1330.185,-64.95,,
1330.2,-65.0,,
1330.215,-67.89,,
1330.23,-66.96,,
1330.245,-65.74,,
1330.26,-67.11,,
1330.275,-78.26,,
1330.29,-71.89,,
1330.305,-66.73,,
1330.32,-69.7,,
1330.335,-210.0,,
1330.35,-73.89,,
1330.365,-73.26,,
1330.38,-71.49,,
1330.395,-210.0,,
1330.41,-70.09,,
1330.425,-66.74,,
1330.44,-70.87,,
1330.455,-76.23,,
1330.47,-66.43,,
1330.485,-66.14,,
1330.5,-71.12,,
1330.515,-69.98,,
1330.53,-65.83,,
1330.545,-66.78,,
1330.56,-77.23,,
1330.575,-70.23,,
1330.59,-66.58,,
1330.605,-68.36,,
1330.62,-210.0,,
1330.635,-74.09,,
1330.65,-210.0,,
1330.665,-82.8,,
1330.68,-74.13,,
1330.695,-210.0,,
1330.71,-210.0,,
1330.725,-210.0,,
1330.74,-80.36,,
1330.755,-210.0,,
1330.77,-210.0,,
1330.785,-210.0,,
1330.8,-210.0,,
1330.815,-210.0,,
1330.83,-210.0,,
1330.845,-78.4,,
1330.86,-210.0,,
1330.875,-210.0,,
1330.89,-210.0,,
1330.905,-210.0,,
1330.92,-210.0,,
1330.935,-210.0,,
1330.95,-85.05,,
1330.965,-210.0,,
1330.98,-210.0,,
1330.995,-210.0,,
1331.01,-210.0,,
1331.025,-210.0,,
1331.04,-210.0,,
1331.055,-210.0,,
1331.07,-210.0,,
1331.085,-210.0,,
1331.1,-210.0,,
1331.115,-70.07,,
1331.13,-210.0,,
1331.145,-210.0,,
1331.16,-210.0,,
1331.175,-210.0,,
1331.19,-210.0,,
1331.205,-210.0,,
1331.22,-210.0,,
1331.235,-210.0,,
1331.25,-210.0,,
1331.265,-210.0,,
1331.28,-210.0,,
1331.295,-73.83,,
1331.31,-210.0,,
1331.325,-210.0,,
1331.34,-210.0,,
1331.355,-71.82,,
1331.37,-210.0,,
1331.385,-210.0,,
1331.4,-73.33,,
1331.415,-210.0,,
1331.43,-210.0,,
1331.445,-210.0,,
1331.46,-70.28,,
1331.475,-210.0,,
1331.49,-210.0,,
1331.505,-78.42,,
1331.52,-70.84,,
1331.535,-210.0,,
1331.55,-210.0,,
1331.565,-71.76,,
1331.58,-71.02,,
1331.595,-210.0,,
1331.61,-210.0,,
1331.625,-73.07,,
1331.64,-73.4,,
1331.655,-68.4,,
1331.67,-68.1,,
1331.685,-72.07,,
1331.7,-71.03,,
1331.715,-70.05,,
1331.73,-67.77,,
1331.745,-70.1,,
1331.76,-68.33,,
1331.775,-67.43,,
1331.79,-68.91,,
1331.805,-69.05,,
1331.82,-68.95,,
1331.835,-69.59,,
1331.85,-74.54,,
1331.865,-71.16,,
1331.88,-71.89,,
1331.895,-77.22,,
1331.91,-210.0,,
1331.925,-77.92,,
1331.94,-70.7,,
1331.955,-90.89,,
1331.97,-78.4,,
1331.985,-69.77,,
1332.0,-69.82,,
1332.015,-84.95,,
1332.03,-69.93,,
1332.045,-68.66,,
1332.06,-71.05,,
1332.075,-73.88,,
1332.09,-68.93,,
1332.105,-69.08,,
1332.12,-210.0,,
1332.135,-82.14,,
1332.15,-72.1,,
1332.165,-84.57,,
1332.18,-210.0,,
1332.195,-210.0,,
1332.21,-77.38,,
1332.225,-210.0,,
1332.24,-210.0,,
1332.255,-210.0,,
1332.27,-67.54,,
1332.285,-72.83,,
1332.3,-210.0,,
1332.315,-68.75,,
1332.33,-66.43,,
1332.345,-71.76,,
1332.36,-210.0,,
1332.375,-67.98,,
1332.39,-66.04,,
1332.405,-67.99,,
1332.42,-69.95,,
1332.435,-65.73,,
1332.45,-66.06,,
1332.465,-67.77,,
1332.48,-68.66,,
1332.495,-66.65,,
1332.51,-66.91,,
1332.525,-70.22,,
1332.54,-67.62,,
1332.555,-66.03,,
1332.57,-67.56,,
1332.585,-69.43,,
1332.6,-66.97,,
1332.615,-66.25,,
1332.63,-67.39,,
1332.645,-67.48,,
1332.66,-66.64,,
1332.675,-67.38,,
1332.69,-68.48,,
1332.705,-67.59,,
1332.72,-65.42,,
1332.735,-67.21,,
1332.75,-67.65,,
1332.765,-67.63,,
1332.78,-67.34,,
1332.795,-70.41,,
1332.81,-71.23,,
1332.825,-69.47,,
1332.84,-68.33,,
1332.855,-68.51,,
1332.87,-68.28,,
1332.885,-67.41,,
1332.9,-67.97,,
1332.915,-67.96,,
1332.93,-66.72,,
1332.945,-66.55,,
1332.96,-66.94,,
1332.975,-67.82,,
1332.99,-66.54,,
1333.005,-67.35,,
1333.02,-66.55,,
1333.035,-67.6,,
1333.05,-66.97,,
1333.065,-68.33,,
1333.08,-68.63,,
1333.095,-68.05,,
1333.11,-69.02,,
1333.125,-69.41,,
1333.141,-71.66,,
1333.155,-67.73,,
1333.17,-68.86,,
1333.185,-69.09,,
1333.2,-67.0,,
1333.215,-66.3,,
1333.23,-66.82,,
1333.245,-67.38,,
1333.26,-64.52,,
1333.276,-66.0,,
1333.29,-66.45,,
1333.305,-65.45,,
1333.32,-64.76,,
1333.335,-65.45,,
1333.35,-65.78,,
1333.365,-65.3,,
1333.38,-64.68,,
1333.396,-65.77,,
1333.411,-69.59,,
1333.426,-66.79,,
1333.44,-66.32,,
1333.455,-68.56,,
1333.47,-74.46,,
1333.485,-66.78,,
1333.5,-66.04,,
1333.516,-69.5,,
1333.531,-68.24,,
1333.546,-64.87,,
1333.561,-67.6,,
1333.575,-77.56,,
1333.59,-67.95,,
1333.605,-66.14,,
1333.62,-68.27,,
1333.635,-74.2,,
1333.651,-67.21,,
1333.666,-67.28,,
1333.681,-76.47,,
1333.696,-83.04,,
1333.711,-67.65,,
1333.725,-70.44,,
1333.74,-210.0,,
1333.755,-210.0,,
1333.771,-68.67,,
1333.786,-82.01,,
1333.801,-210.0,,
1333.816,-67.74,,
1333.831,-66.04,,
1333.846,-86.01,,
1333.86,-76.06,,
1333.875,-68.24,,
1333.891,-70.66,,
1333.906,-210.0,,
1333.921,-72.67,,
1333.936,-66.46,,
1333.951,-74.31,,
1333.966,-210.0,,
1333.981,-66.88,,
1333.996,-68.34,,
1334.01,-210.0,,
1334.026,-74.25,,
1334.041,-67.06,,
1334.056,-69.83,,
1334.071,-75.24,,
1334.086,-66.64,,
1334.101,-65.44,,
1334.116,-67.86,,
1334.131,-68.35,,
1334.146,-64.03,,
1334.161,-65.49,,
1334.176,-71.52,,
1334.191,-66.16,,
1334.206,-64.52,,
1334.221,-66.71,,
1334.236,-70.62,,
1334.251,-66.13,,
1334.266,-66.45,,
1334.281,-71.37,,
1334.296,-73.02,,
1334.311,-65.77,,
1334.326,-70.01,,
1334.341,-210.0,,
1334.356,-69.92,,
1334.371,-67.06,,
1334.386,-75.93,,
1334.401,-210.0,,
1334.416,-67.81,,
1334.431,-70.64,,
1334.446,-210.0,,
1334.461,-75.43,,
1334.476,-67.68,,
1334.491,-71.49,,
1334.506,-210.0,,
1334.521,-75.57,,
1334.536,-69.18,,
1334.551,-210.0,,
1334.566,-210.0,,
1334.581,-68.22,,
1334.596,-70.5,,
1334.611,-210.0,,
1334.626,-210.0,,
1334.641,-69.29,,
1334.656,-74.0,,
1334.671,-210.0,,
1334.686,-69.41,,
1334.701,-68.02,,
1334.716,-210.0,,
1334.731,-210.0,,
1334.746,-67.2,,
1334.761,-66.73,,
1334.776,-81.31,,
1334.791,-69.66,,
1334.806,-66.67,,
1334.821,-69.08,,
1334.836,-210.0,,
1334.851,-67.87,,
1334.866,-67.32,,
1334.881,-72.46,,
1334.896,-76.97,,
1334.911,-66.86,,
1334.926,-67.47,,
1334.941,-210.0,,
1334.956,-70.16,,
1334.971,-67.37,,
1334.986,-72.78,,
1335.001,-210.0,,
1335.016,-67.83,,
1335.031,-66.67,,
1335.046,-74.5,,
1335.061,-71.62,,
1335.076,-66.95,,
1335.091,-68.81,,
1335.106,-210.0,,
1335.121,-69.25,,
1335.136,-66.28,,
1335.151,-74.11,,
1335.166,-210.0,,
1335.181,-66.88,,
1335.196,-67.01,,
1335.211,-81.45,,
1335.226,-70.65,,
1335.241,-67.12,,
1335.256,-70.64,,
1335.271,-210.0,,
1335.286,-67.61,,
1335.301,-65.75,,
1335.316,-71.72,,
1335.331,-70.15,,
1335.346,-65.31,,
1335.361,-66.4,,
1335.376,-71.7,,
1335.391,-67.08,,
1335.406,-65.47,,
1335.421,-68.1,,
1335.436,-65.6,,
1335.451,-64.0,,
1335.466,-66.24,,
1335.481,-66.11,,
1335.496,-65.36,,
1335.511,-65.09,,
1335.526,-66.16,,
1335.541,-66.14,,
1335.556,-64.69,,
1335.571,-65.69,,
1335.586,-65.71,,
1335.601,-64.92,,
1335.616,-64.29,,
1335.631,-65.07,,
1335.646,-65.19,,
1335.661,-64.28,,
1335.676,-64.16,,
1335.691,-65.37,,
1335.706,-65.65,,
1335.721,-63.63,,
1335.736,-64.08,,
1335.751,-65.27,,
1335.766,-65.31,,
1335.781,-63.88,,
1335.796,-66.06,,
1335.811,-66.33,,
1335.826,-64.97,,
1335.841,-64.5,,
1335.856,-66.14,,
1335.871,-66.0,,
1335.886,-64.67,,
1335.901,-64.65,,
1335.916,-65.07,,
1335.931,-64.44,,
1335.946,-63.63,,
1335.961,-65.24,,
1335.976,-65.05,,
1335.991,-64.33,,
1336.006,-64.71,,
1336.021,-65.6,,
1336.036,-65.62,,
1336.051,-64.63,,
1336.066,-65.54,,
1336.081,-66.51,,
1336.096,-65.19,,
1336.111,-64.81,,
1336.126,-66.79,,
1336.141,-66.61,,
1336.156,-65.73,,
1336.171,-66.9,,
1336.186,-67.16,,
1336.201,-66.23,,
1336.216,-65.2,,
1336.231,-67.56,,
1336.246,-67.46,,
1336.261,-66.02,,
1336.276,-66.09,,
1336.291,-67.55,,
1336.306,-67.5,,
1336.321,-66.43,,
1336.336,-67.74,,
1336.351,-68.38,,
1336.366,-67.27,,
1336.381,-66.01,,
1336.396,-68.1,,
1336.411,-68.69,,
1336.426,-67.25,,
1336.441,-76.74,,
1336.456,-210.0,,
1336.471,-67.87,,
1336.486,-69.32,,
1336.501,-210.0,,
1336.516,-72.63,,
1336.531,-67.58,,
1336.546,-76.02,,
1336.561,-210.0,,
1336.576,-68.17,,
1336.591,-67.88,,
1336.606,-77.52,,
1336.621,-74.12,,
1336.636,-66.94,,
1336.651,-69.72,,
1336.666,-210.0,,
1336.681,-74.74,,
1336.696,-69.61,,
1336.711,-75.0,,
1336.726,-210.0,,
1336.741,-71.46,,
1336.756,-70.05,,
1336.771,-210.0,,
1336.786,-210.0,,
1336.801,-68.4,,
1336.816,-70.25,,
1336.831,-210.0,,
1336.846,-72.45,,
1336.861,-68.49,,
1336.876,-76.04,,
1336.891,-210.0,,
1336.906,-69.05,,
1336.921,-69.49,,
1336.936,-210.0,,
1336.951,-210.0,,
1336.966,-67.9,,
1336.981,-72.63,,
1336.996,-210.0,,
1337.011,-72.12,,
1337.026,-68.98,,
1337.041,-210.0,,
1337.056,-210.0,,
1337.071,-69.44,,
1337.086,-70.08,,
1337.101,-210.0,,
1337.116,-75.79,,
1337.131,-67.34,,
1337.146,-75.88,,
1337.161,-210.0,,
1337.176,-67.37,,
1337.191,-66.33,,
1337.206,-81.93,,
1337.221,-210.0,,
1337.236,-66.45,,
1337.251,-66.58,,
1337.266,-74.3,,
1337.281,-68.53,,
1337.296,-67.47,,
1337.311,-70.74,,
1337.326,-76.77,,
1337.341,-67.12,,
1337.356,-66.64,,
1337.371,-72.7,,
1337.386,-71.89,,
1337.401,-65.94,,
1337.416,-67.4,,
1337.431,-69.92,,
1337.446,-65.36,,
1337.461,-64.61,,
1337.476,-66.7,,
1337.491,-68.0,,
1337.506,-64.51,,
1337.521,-64.27,,
1337.536,-66.51,,
1337.551,-64.78,,
1337.566,-63.24,,
1337.581,-64.44,,
1337.596,-66.27,,
1337.611,-64.48,,
1337.626,-64.11,,
1337.641,-67.03,,
1337.656,-67.37,,
1337.671,-64.53,,
1337.686,-64.79,,
1337.701,-68.55,,
1337.716,-66.31,,
1337.731,-64.11,,
1337.746,-65.78,,
1337.761,-67.71,,
1337.776,-63.88,,
1337.791,-63.73,,
1337.806,-66.08,,
1337.821,-65.54,,
1337.836,-63.47,,
1337.851,-64.41,,
1337.866,-66.44,,
1337.881,-64.39,,
1337.896,-63.82,,
1337.911,-65.31,,
1337.926,-66.07,,
1337.941,-63.43,,
1337.956,-63.58,,
1337.971,-66.16,,
1337.986,-64.96,,
1338.001,-62.98,,
1338.016,-63.62,,
1338.031,-64.88,,
1338.046,-62.84,,
1338.061,-62.67,,
1338.076,-64.16,,
1338.091,-64.58,,
1338.106,-62.41,,
1338.121,-62.73,,
1338.136,-64.42,,
1338.151,-63.44,,
1338.166,-63.6,,
1338.181,-63.86,,
1338.196,-63.82,,
1338.211,-62.63,,
1338.226,-63.54,,
1338.241,-64.43,,
1338.256,-64.58,,
1338.271,-63.81,,
1338.286,-64.69,,
1338.301,-64.43,,
1338.316,-63.54,,
1338.331,-63.48,,
1338.346,-64.24,,
1338.361,-64.14,,
1338.376,-63.25,,
1338.391,-64.16,,
1338.406,-65.09,,
1338.421,-63.76,,
1338.436,-63.26,,
1338.451,-65.78,,
1338.466,-65.26,,
1338.481,-64.31,,
1338.496,-64.59,,
1338.511,-65.84,,
1338.526,-65.76,,
1338.541,-64.68,,
1338.556,-66.54,,
1338.571,-67.44,,
1338.586,-65.76,,
1338.601,-65.07,,
1338.616,-67.54,,
1338.631,-67.35,,
1338.646,-64.69,,
1338.661,-65.08,,
1338.676,-66.62,,
1338.691,-65.42,,
1338.706,-63.85,,
1338.721,-64.94,,
1338.736,-65.89,,
1338.751,-64.74,,
1338.766,-64.27,,
1338.781,-68.17,,
1338.796,-68.08,,
1338.811,-65.34,,
1338.826,-66.63,,
1338.841,-70.0,,
1338.856,-69.44,,
1338.871,-66.83,,
1338.886,-74.53,,
1338.901,-210.0,,
1338.916,-70.64,,
1338.931,-70.67,,
1338.946,-210.0,,
1338.961,-91.73,,
1338.976,-69.24,,
1338.991,-76.79,,
1339.006,-78.43,,
1339.021,-71.69,,
1339.036,-70.07,,
1339.051,-210.0,,
1339.066,-79.51,,
1339.081,-69.48,,
1339.096,-70.03,,
1339.111,-74.61,,
1339.126,-73.55,,
1339.141,-210.0,,
1339.156,-81.72,,
1339.171,-69.27,,
1339.186,-81.12,,
1339.201,-210.0,,
1339.216,-210.0,,
1339.231,-72.95,,
1339.246,-210.0,,
1339.261,-210.0,,
1339.276,-75.56,,
1339.291,-70.38,,
1339.306,-210.0,,
1339.321,-210.0,,
1339.336,-76.35,,
1339.351,-79.83,,
1339.366,-210.0,,
1339.381,-210.0,,
1339.396,-74.19,,
1339.411,-210.0,,
1339.426,-210.0,,
1339.441,-210.0,,
1339.456,-72.3,,
1339.471,-210.0,,
1339.486,-210.0,,
1339.501,-82.23,,
1339.516,-210.0,,
1339.531,-210.0,,
1339.546,-210.0,,
1339.561,-69.71,,
1339.576,-76.63,,
1339.591,-77.74,,
1339.606,-70.53,,
1339.621,-69.67,,
1339.636,-210.0,,
1339.651,-210.0,,
1339.666,-74.34,,
1339.681,-82.31,,
1339.696,-210.0,,
1339.711,-210.0,,
1339.726,-84.17,,
1339.741,-210.0,,
1339.756,-210.0,,
1339.771,-210.0,,
1339.786,-83.27,,
1339.801,-210.0,,
1339.816,-210.0,,
1339.831,-210.0,,
1339.846,-210.0,,
1339.861,-210.0,,
1339.876,-210.0,,
1339.891,-87.44,,
1339.906,-69.89,,
1339.921,-71.29,,
1339.936,-79.13,,
1339.951,-69.75,,
1339.966,-68.41,,
1339.981,-71.79,,
1339.996,-71.12,,
1340.011,-69.27,,
1340.026,-71.84,,
1340.041,-76.84,,
1340.056,-72.99,,
1340.071,-72.48,,
1340.086,-210.0,,
1340.101,-210.0,,
1340.116,-210.0,,
1340.131,-210.0,,
1340.146,-70.2,,
1340.161,-210.0,,
1340.176,-210.0,,
1340.191,-69.59,,
1340.206,-69.49,,
1340.221,-210.0,,
1340.236,-210.0,,
1340.251,-68.23,,
1340.266,-72.34,,
1340.281,-210.0,,
1340.296,-75.45,,
1340.311,-70.08,,
1340.326,-210.0,,
1340.341,-210.0,,
1340.356,-68.83,,
1340.371,-69.46,,
1340.386,-82.8,,
1340.401,-73.31,,
1340.416,-67.2,,
1340.431,-68.5,,
1340.446,-73.88,,
1340.461,-68.56,,
1340.476,-67.06,,
1340.491,-73.86,,
1340.506,-72.52,,
1340.521,-66.57,,
1340.536,-67.54,,
1340.551,-71.42,,
1340.566,-71.92,,
1340.581,-72.83,,
1340.596,-73.41,,
1340.611,-71.49,,
1340.626,-75.18,,
1340.641,-75.39,,
1340.656,-72.35,,
1340.671,-70.23,,
1340.686,-69.96,,
1340.701,-71.47,,
1340.716,-70.29,,
1340.731,-70.38,,
1340.746,-70.18,,
1340.761,-72.21,,
1340.776,-71.33,,
1340.791,-69.74,,
1340.806,-68.99,,
1340.821,-69.44,,
1340.836,-68.57,,
1340.851,-68.99,,
1340.866,-71.06,,
1340.881,-66.48,,
1340.896,-66.1,,
1340.911,-73.36,,
1340.926,-73.83,,
1340.941,-67.28,,
1340.956,-69.47,,
1340.971,-210.0,,
1340.986,-210.0,,
1341.001,-210.0,,
1341.016,-210.0,,
1341.031,-210.0,,
1341.046,-210.0,,
1341.061,-210.0,,
1341.076,-210.0,,
1341.091,-210.0,,
1341.106,-210.0,,
1341.121,-210.0,,
1341.136,-210.0,,
1341.151,-210.0,,
1341.167,-210.0,,
1341.181,-210.0,,
1341.196,-210.0,,
1341.211,-210.0,,
1341.226,-210.0,,
1341.241,-210.0,,
1341.256,-210.0,,
1341.271,-210.0,,
1341.286,-210.0,,
1341.302,-210.0,,
1341.316,-210.0,,
1341.331,-210.0,,
1341.346,-210.0,,
1341.361,-210.0,,
1341.376,-210.0,,
1341.391,-210.0,,
1341.406,-210.0,,
1341.422,-210.0,,
1341.437,-210.0,,
1341.452,-210.0,,
1341.466,-210.0,,
1341.481,-210.0,,
1341.496,-210.0,,
1341.511,-210.0,,
1341.526,-210.0,,
1341.542,-210.0,,
1341.557,-210.0,,
1341.572,-210.0,,
1341.587,-210.0,,
1341.601,-210.0,,
1341.616,-210.0,,
1341.631,-210.0,,
1341.646,-210.0,,
1341.661,-210.0,,
1341.677,-210.0,,
1341.692,-210.0,,
1341.707,-210.0,,
1341.722,-210.0,,
1341.737,-210.0,,
1341.751,-210.0,,
1341.766,-210.0,,
1341.781,-210.0,,
1341.797,-210.0,,
1341.812,-210.0,,
1341.827,-210.0,,
1341.842,-210.0,,
1341.857,-210.0,,
1341.872,-210.0,,
1341.887,-210.0,,
1341.901,-210.0,,
1341.917,-210.0,,
1341.932,-210.0,,
1341.947,-210.0,,
1341.962,-210.0,,
1341.977,-210.0,,
1341.992,-74.88,,
1342.007,-68.22,,
1342.022,-74.1,,
1342.036,-72.85,,
1342.052,-68.71,,
1342.067,-67.15,,
1342.082,-65.84,,
1342.097,-66.93,,
1342.112,-67.9,,
1342.127,-66.39,,
1342.142,-66.74,,
1342.157,-66.82,,
1342.172,-66.04,,
1342.187,-65.18,,
1342.202,-65.95,,
1342.217,-67.38,,
1342.232,-65.84,,
1342.247,-66.22,,
1342.262,-66.53,,
1342.277,-65.66,,
1342.292,-64.37,,
1342.307,-64.44,,
1342.322,-64.45,,
1342.337,-64.76,,
1342.352,-64.21,,
1342.367,-64.19,,
1342.382,-64.85,,
1342.397,-65.04,,
1342.412,-64.09,,
1342.427,-62.78,,
1342.442,-64.3,,
1342.457,-64.84,,
1342.472,-63.67,,
1342.487,-63.56,,
1342.502,-66.08,,
1342.517,-65.05,,
1342.532,-63.53,,
1342.547,-64.2,,
1342.562,-64.96,,
1342.577,-64.34,,
1342.592,-63.18,,
1342.607,-64.66,,
1342.622,-65.19,,
1342.637,-63.38,,
1342.652,-63.63,,
1342.667,-65.9,,
1342.682,-65.17,,
1342.697,-65.97,,
1342.712,-66.11,,
1342.727,-65.72,,
1342.742,-66.49,,
1342.757,-66.67,,
1342.772,-66.62,,
1342.787,-66.96,,
1342.802,-66.79,,
1342.817,-66.97,,
1342.832,-66.0,,
1342.847,-67.66,,
1342.862,-67.45,,
1342.877,-66.23,,
1342.892,-66.37,,
1342.907,-64.92,,
1342.922,-65.22,,
1342.937,-65.31,,
1342.952,-65.43,,
1342.967,-65.68,,
1342.982,-65.83,,
1342.997,-66.2,,
1343.012,-66.51,,
1343.027,-66.64,,
1343.042,-66.05,,
1343.057,-67.1,,
1343.072,-66.57,,
1343.087,-71.67,,
1343.102,-210.0,,
1343.117,-77.3,,
1343.132,-73.7,,
1343.147,-71.52,,
1343.162,-71.6,,
1343.177,-74.75,,
1343.192,-72.12,,
1343.207,-76.14,,
1343.222,-72.3,,
1343.237,-73.9,,
1343.252,-73.58,,
1343.267,-76.17,,
1343.282,-78.61,,
1343.297,-74.52,,
1343.312,-74.57,,
1343.327,-210.0,,
1343.342,-210.0,,
1343.357,-73.71,,
1343.372,-210.0,,
1343.387,-210.0,,
1343.402,-210.0,,
1343.417,-210.0,,
1343.432,-210.0,,
1343.447,-210.0,,
1343.462,-210.0,,
1343.477,-210.0,,
1343.492,-210.0,,
1343.507,-210.0,,
1343.522,-210.0,,
1343.537,-210.0,,
1343.552,-210.0,,
1343.567,-210.0,,
1343.582,-210.0,,
1343.597,-210.0,,
1343.612,-210.0,,
1343.627,-210.0,,
1343.642,-210.0,,
1343.657,-210.0,,
1343.672,-210.0,,
1343.687,-210.0,,
1343.702,-210.0,,
1343.717,-210.0,,
1343.732,-210.0,,
1343.747,-210.0,,
1343.762,-210.0,,
1343.777,-210.0,,
1343.792,-210.0,,
1343.807,-210.0,,
1343.822,-210.0,,
1343.837,-210.0,,
1343.852,-210.0,,
1343.867,-210.0,,
1343.882,-210.0,,
1343.897,-210.0,,
1343.912,-210.0,,
1343.927,-210.0,,
1343.942,-210.0,,
1343.957,-210.0,,
1343.972,-210.0,,
1343.987,-210.0,,
1344.002,-210.0,,
1344.017,-210.0,,
1344.032,-210.0,,
1344.047,-210.0,,
1344.062,-210.0,,
1344.077,-210.0,,
1344.092,-210.0,,
1344.107,-210.0,,
1344.122,-210.0,,
1344.137,-210.0,,
1344.152,-210.0,,
1344.167,-210.0,,
1344.182,-210.0,,
1344.197,-210.0,,
1344.212,-210.0,,
1344.227,-210.0,,
1344.242,-210.0,,
1344.257,-210.0,,
1344.272,-210.0,,
1344.287,-210.0,,
1344.302,-210.0,,
1344.317,-210.0,,
1344.332,-210.0,,
1344.347,-210.0,,
1344.362,-210.0,,
1344.377,-210.0,,
1344.392,-210.0,,
1344.407,-210.0,,
1344.422,-210.0,,
1344.437,-210.0,,
1344.452,-210.0,,
1344.467,-210.0,,
1344.482,-210.0,,
1344.497,-210.0,,
1344.512,-83.54,,
1344.527,-71.14,,
1344.542,-68.37,,
1344.557,-75.0,,
1344.572,-76.51,,
1344.587,-68.71,,
1344.602,-67.6,,
1344.617,-210.0,,
1344.632,-72.47,,
1344.647,-67.2,,
1344.662,-70.09,,
1344.677,-73.67,,
1344.692,-68.84,,
1344.707,-68.33,,
1344.722,-71.91,,
1344.737,-70.73,,
1344.752,-67.35,,
1344.767,-67.23,,
1344.782,-67.81,,
1344.797,-71.91,,
1344.812,-74.66,,
1344.827,-66.11,,
1344.842,-65.83,,
1344.857,-80.3,,
1344.872,-75.0,,
1344.887,-66.02,,
1344.902,-67.19,,
1344.917,-210.0,,
1344.932,-68.31,,
1344.947,-68.21,,
1344.962,-68.84,,
1344.977,-68.22,,
1344.992,-67.61,,
1345.007,-69.4,,
1345.022,-68.86,,
1345.037,-66.32,,
1345.052,-66.36,,
1345.067,-68.11,,
1345.082,-67.75,,
1345.097,-65.77,,
1345.112,-65.44,,
1345.127,-68.07,,
1345.142,-67.75,,
1345.157,-67.35,,
1345.172,-68.04,,
1345.187,-71.7,,
1345.202,-69.15,,
1345.217,-71.5,,
1345.232,-210.0,,
1345.247,-69.05,,
1345.262,-67.47,,
1345.277,-72.82,,
1345.292,-72.84,,
1345.307,-67.19,,
1345.322,-67.97,,
1345.337,-71.04,,
1345.352,-68.4,,
1345.367,-66.39,,
1345.382,-68.44,,
1345.397,-67.28,,
1345.412,-65.94,,
1345.427,-67.01,,
1345.442,-73.22,,
1345.457,-68.4,,
1345.472,-67.9,,
1345.487,-70.18,,
1345.502,-72.26,,
1345.517,-68.19,,
1345.532,-70.6,,
1345.547,-76.92,,
1345.562,-69.83,,
1345.577,-66.99,,
1345.592,-68.57,,
1345.607,-67.79,,
1345.622,-64.21,,
1345.637,-64.8,,
1345.652,-67.74,,
1345.667,-64.57,,
1345.682,-63.38,,
1345.697,-66.53,,
1345.712,-66.48,,
1345.727,-64.05,,
1345.742,-64.15,,
1345.757,-68.77,,
1345.772,-65.75,,
1345.787,-64.49,,
1345.802,-65.41,,
1345.817,-65.54,,
1345.832,-65.66,,
1345.847,-66.69,,
1345.862,-65.7,,
1345.877,-64.84,,
1345.892,-66.41,,
1345.907,-70.3,,
1345.922,-64.72,,
1345.937,-64.26,,
1345.952,-67.01,,
1345.967,-67.89,,
1345.982,-64.66,,
1345.997,-64.83,,
1346.012,-65.87,,
1346.027,-65.72,,
1346.042,-64.58,,
1346.057,-66.0,,
1346.072,-70.52,,
1346.087,-66.39,,
1346.102,-65.67,,
1346.117,-67.2,,
1346.132,-72.85,,
1346.147,-66.6,,
1346.162,-65.97,,
1346.177,-68.97,,
1346.192,-64.65,,
1346.207,-63.64,,
1346.222,-65.85,,
1346.237,-63.48,,
1346.252,-63.0,,
1346.267,-64.39,,
1346.282,-64.62,,
1346.297,-63.52,,
1346.312,-62.98,,
1346.327,-64.38,,
1346.342,-63.81,,
1346.357,-63.1,,
1346.372,-63.9,,
1346.387,-65.35,,
1346.402,-63.86,,
1346.417,-63.84,,
1346.432,-65.54,,
1346.447,-65.27,,
1346.462,-63.33,,
1346.477,-63.25,,
1346.492,-64.12,,
1346.507,-62.26,,
1346.522,-62.62,,
1346.537,-64.32,,
1346.552,-63.42,,
1346.567,-62.04,,
1346.582,-63.11,,
1346.597,-64.28,,
1346.612,-63.31,,
1346.627,-63.7,,
1346.642,-65.15,,
1346.657,-64.28,,
1346.672,-63.88,,
1346.687,-64.61,,
1346.702,-65.73,,
1346.717,-64.5,,
1346.732,-64.42,,
1346.747,-65.6,,
1346.762,-65.15,,
1346.777,-64.28,,
1346.792,-64.26,,
1346.807,-65.18,,
1346.822,-64.18,,
1346.837,-63.43,,
1346.852,-63.72,,
1346.867,-65.0,,
1346.882,-63.97,,
1346.897,-63.71,,
1346.912,-62.97,,
1346.927,-62.95,,
1346.942,-63.28,,
1346.957,-63.86,,
1346.972,-63.04,,
1346.987,-62.69,,
1347.002,-63.2,,
1347.017,-64.43,,
1347.032,-62.87,,
1347.047,-63.04,,
1347.062,-64.52,,
1347.077,-62.9,,
1347.092,-61.98,,
1347.107,-62.56,,
1347.122,-64.27,,
1347.137,-62.34,,
1347.152,-62.01,,
1347.167,-63.77,,
1347.182,-63.82,,
1347.197,-64.04,,
1347.212,-65.05,,
1347.227,-64.75,,
1347.242,-64.79,,
1347.257,-65.88,,
1347.272,-66.7,,
1347.287,-67.27,,
1347.302,-65.75,,
1347.317,-67.28,,
1347.332,-66.0,,
1347.347,-64.29,,
1347.362,-65.81,,
1347.377,-68.25,,
1347.392,-64.16,,
1347.407,-63.72,,
1347.422,-65.54,,
1347.437,-65.57,,
1347.452,-63.16,,
1347.467,-64.08,,
1347.482,-67.56,,
1347.497,-65.39,,
1347.512,-65.31,,
1347.527,-67.11,,
1347.542,-65.66,,
1347.557,-64.43,,
1347.572,-65.35,,
1347.587,-67.06,,
1347.602,-65.93,,
1347.617,-65.21,,
1347.632,-65.4,,
1347.647,-65.06,,
1347.662,-63.58,,
1347.677,-64.48,,
1347.692,-67.13,,
1347.707,-63.57,,
1347.722,-62.78,,
1347.737,-64.77,,
1347.752,-64.65,,
1347.767,-62.51,,
1347.782,-63.29,,
1347.797,-65.84,,
1347.812,-64.36,,
1347.827,-63.26,,
1347.842,-64.56,,
1347.857,-66.68,,
1347.872,-64.2,,
1347.887,-66.7,,
1347.902,-66.89,,
1347.917,-64.39,,
1347.932,-66.54,,
1347.947,-69.69,,
1347.962,-65.68,,
1347.977,-64.92,,
1347.992,-67.78,,
1348.007,-67.07,,
1348.022,-64.35,,
1348.037,-65.27,,
1348.052,-67.4,,
1348.067,-65.11,,
1348.082,-64.89,,
1348.097,-66.61,,
1348.112,-65.58,,
1348.127,-65.1,,
1348.142,-66.16,,
1348.157,-66.84,,
1348.172,-64.87,,
1348.187,-64.86,,
1348.202,-64.91,,
1348.217,-64.78,,
1348.232,-64.17,,
1348.247,-65.36,,
1348.262,-64.71,,
1348.277,-63.9,,
1348.292,-63.65,,
1348.307,-64.26,,
1348.322,-64.43,,
1348.337,-66.11,,
1348.352,-66.16,,
1348.367,-65.61,,
1348.382,-63.84,,
1348.397,-65.42,,
1348.412,-65.18,,
1348.427,-64.37,,
1348.442,-64.5,,
1348.457,-65.61,,
1348.472,-64.69,,
1348.487,-63.98,,
1348.502,-65.32,,
1348.517,-64.7,,
1348.532,-63.88,,
1348.547,-64.0,,
1348.562,-65.36,,
1348.577,-67.28,,
1348.592,-67.66,,
1348.607,-64.84,,
1348.622,-64.99,,
1348.637,-66.94,,
1348.652,-68.78,,
1348.667,-68.28,,
1348.682,-67.93,,
1348.697,-67.84,,
1348.712,-68.61,,
1348.727,-69.68,,
1348.742,-68.29,,
1348.757,-71.86,,
1348.772,-210.0,,
1348.787,-73.01,,
1348.802,-71.17,,
1348.817,-73.03,,
1348.832,-70.25,,
1348.847,-68.66,,
1348.862,-65.95,,
1348.877,-65.91,,
1348.892,-64.83,,
1348.907,-64.87,,
1348.922,-65.34,,
1348.937,-64.13,,
1348.952,-64.61,,
1348.967,-64.59,,
1348.982,-64.29,,
1348.997,-63.71,,
1349.012,-64.88,,
1349.027,-64.79,,
1349.042,-64.2,,
1349.057,-65.11,,
1349.072,-66.68,,
1349.087,-65.33,,
1349.102,-64.97,,
1349.117,-70.18,,
1349.132,-67.07,,
1349.147,-64.76,,
1349.162,-65.17,,
1349.177,-64.13,,
1349.193,-63.3,,
1349.207,-64.7,,
1349.222,-65.0,,
1349.237,-63.95,,
1349.252,-62.7,,
1349.267,-64.44,,
1349.282,-64.78,,
1349.297,-63.29,,
1349.313,-63.25,,
1349.328,-64.41,,
1349.343,-62.32,,
1349.357,-62.3,,
1349.372,-64.01,,
1349.387,-64.7,,
1349.402,-62.76,,
1349.417,-63.7,,
1349.432,-66.02,,
1349.448,-64.01,,
1349.463,-64.44,,
1349.478,-65.16,,
1349.492,-63.38,,
1349.507,-62.59,,
1349.522,-64.15,,
1349.537,-64.53,,
1349.552,-63.44,,
1349.568,-64.4,,
1349.583,-64.31,,
1349.598,-62.31,,
1349.613,-62.71,,
1349.628,-64.73,,
1349.642,-64.14,,
1349.657,-62.43,,
1349.672,-63.36,,
1349.688,-64.62,,
1349.703,-63.8,,
1349.718,-64.78,,
1349.733,-64.79,,
1349.748,-64.01,,
1349.763,-63.0,,
1349.777,-63.65,,
1349.792,-63.81,,
1349.807,-62.97,,
1349.823,-63.32,,
1349.838,-64.61,,
1349.853,-63.91,,
1349.868,-64.24,,
1349.883,-67.53,,
1349.898,-65.63,,
1349.913,-64.29,,
1349.927,-66.85,,
1349.943,-66.17,,
1349.958,-64.42,,
1349.973,-66.0,,
1349.988,-68.08,,
1350.003,-66.02,,
1350.018,-64.63,,
1350.033,-67.6,,
1350.048,-68.67,,
1350.063,-64.69,,
1350.078,-64.12,,
1350.093,-65.9,,
1350.108,-65.09,,
1350.123,-63.42,,
1350.138,-64.74,,
1350.153,-65.61,,
1350.168,-65.61,,
1350.183,-72.19,,
1350.198,-70.49,,
1350.213,-65.5,,
1350.228,-67.65,,
1350.243,-72.05,,
1350.258,-69.24,,
1350.273,-66.51,,
1350.288,-69.66,,
1350.303,-72.11,,
1350.318,-68.69,,
1350.333,-67.67,,
1350.348,-74.06,,
1350.363,-71.94,,
1350.378,-67.0,,
1350.393,-64.77,,
1350.408,-65.54,,
1350.423,-66.31,,
1350.438,-65.45,,
1350.453,-65.7,,
1350.468,-63.84,,
1350.483,-64.75,,
1350.498,-66.41,,
1350.513,-64.86,,
1350.528,-64.26,,
1350.543,-65.98,,
1350.558,-66.84,,
1350.573,-64.09,,
1350.588,-64.3,,
1350.603,-66.79,,
1350.618,-65.67,,
1350.633,-63.82,,
1350.648,-63.42,,
1350.663,-63.65,,
1350.678,-63.94,,
1350.693,-63.65,,
1350.708,-63.09,,
1350.723,-61.45,,
1350.738,-62.61,,
1350.753,-63.5,,
1350.768,-62.59,,
1350.783,-61.86,,
1350.798,-62.63,,
1350.813,-63.32,,
1350.828,-62.08,,
1350.843,-61.78,,
1350.858,-62.81,,
1350.873,-62.61,,
1350.888,-61.55,,
1350.903,-62.42,,
1350.918,-62.81,,
1350.933,-61.29,,
1350.948,-62.57,,
1350.963,-62.36,,
1350.978,-61.51,,
1350.993,-61.62,,
1351.008,-62.05,,
1351.023,-61.7,,
1351.038,-61.17,,
1351.053,-61.63,,
1351.068,-61.96,,
1351.083,-61.67,,
1351.098,-61.59,,
1351.113,-62.39,,
1351.128,-62.04,,
1351.143,-61.4,,
1351.158,-62.17,,
1351.173,-62.09,,
1351.188,-61.04,,
1351.203,-61.59,,
1351.218,-62.81,,
1351.233,-61.56,,
1351.248,-61.78,,
1351.263,-62.3,,
1351.278,-62.02,,
1351.293,-61.92,,
1351.308,-62.31,,
1351.323,-62.33,,
1351.338,-61.84,,
1351.353,-61.94,,
1351.368,-63.01,,
1351.383,-62.27,,
1351.398,-62.59,,
1351.413,-64.86,,
1351.428,-64.53,,
1351.443,-62.45,,
1351.458,-62.9,,
1351.473,-64.68,,
1351.488,-63.04,,
1351.503,-62.36,,
1351.518,-64.46,,
1351.533,-63.59,,
1351.548,-62.91,,
1351.563,-64.12,,
1351.578,-64.27,,
1351.593,-63.33,,
1351.608,-62.99,,
1351.623,-63.68,,
1351.638,-63.19,,
1351.653,-63.63,,
1351.668,-66.11,,
1351.683,-64.62,,
1351.698,-63.42,,
1351.713,-64.52,,
1351.728,-65.05,,
1351.743,-63.78,,
1351.758,-64.27,,
1351.773,-65.23,,
1351.788,-64.69,,
1351.803,-64.69,,
1351.818,-65.52,,
1351.833,-64.94,,
1351.848,-64.42,,
1351.863,-64.75,,
1351.878,-65.93,,
1351.893,-65.71,,
1351.908,-65.58,,
1351.923,-65.28,,
1351.938,-66.27,,
1351.953,-65.52,,
1351.968,-68.76,,
1351.983,-70.21,,
1351.998,-65.72,,
1352.013,-66.07,,
1352.028,-72.68,,
1352.043,-70.25,,
1352.058,-66.04,,
1352.073,-67.99,,
1352.088,-68.19,,
1352.103,-66.28,,
1352.118,-67.42,,
1352.133,-68.86,,
1352.148,-67.47,,
1352.163,-66.41,,
1352.178,-67.41,,
1352.193,-66.32,,
1352.208,-65.53,,
1352.223,-66.1,,
1352.238,-67.83,,
1352.253,-65.11,,
1352.268,-66.53,,
1352.283,-67.0,,
1352.298,-65.55,,
1352.313,-65.52,,
1352.328,-67.29,,
1352.343,-67.67,,
1352.358,-65.92,,
1352.373,-66.35,,
1352.388,-67.34,,
1352.403,-67.22,,
1352.418,-65.09,,
1352.433,-66.14,,
1352.448,-66.72,,
1352.463,-68.61,,
1352.478,-66.87,,
1352.493,-66.57,,
1352.508,-69.17,,
1352.523,-69.92,,
1352.538,-77.41,,
1352.553,-69.41,,
1352.568,-65.95,,
1352.583,-70.82,,
1352.598,-74.29,,
1352.613,-68.67,,
1352.628,-70.78,,
1352.643,-210.0,,
1352.658,-78.88,,
1352.673,-67.25,,
1352.688,-70.59,,
1352.703,-71.82,,
1352.718,-69.65,,
1352.733,-210.0,,
1352.748,-210.0,,
1352.763,-69.02,,
1352.778,-71.38,,
1352.793,-210.0,,
1352.808,-84.61,,
1352.823,-67.34,,
1352.838,-70.8,,
1352.853,-210.0,,
1352.868,-68.39,,
1352.883,-65.8,,
1352.898,-76.57,,
1352.913,-67.13,,
1352.928,-68.63,,
1352.943,-71.85,,
1352.958,-67.9,,
1352.973,-65.11,,
1352.988,-66.51,,
1353.003,-72.44,,
1353.018,-68.08,,
1353.033,-64.9,,
1353.048,-66.98,,
1353.063,-69.46,,
1353.078,-65.91,,
1353.093,-67.32,,
1353.108,-75.58,,
1353.123,-65.66,,
1353.138,-67.08,,
1353.153,-72.84,,
1353.168,-68.21,,
1353.183,-65.68,,
1353.198,-70.55,,
1353.213,-70.12,,
1353.228,-65.95,,
1353.243,-66.2,,
1353.258,-73.37,,
1353.273,-66.68,,
1353.288,-66.2,,
1353.303,-69.44,,
1353.318,-68.55,,
1353.333,-65.83,,
1353.348,-65.93,,
1353.363,-67.42,,
1353.378,-63.94,,
1353.393,-64.51,,
1353.408,-67.08,,
1353.423,-66.15,,
1353.438,-63.89,,
1353.453,-65.71,,
1353.468,-66.5,,
1353.483,-64.38,,
1353.498,-64.73,,
1353.513,-66.99,,
1353.528,-65.29,,
1353.543,-63.39,,
1353.558,-64.88,,
1353.573,-68.49,,
1353.588,-64.47,,
1353.603,-65.33,,
1353.618,-67.41,,
1353.633,-64.8,,
1353.648,-63.75,,
1353.663,-65.77,,
1353.678,-66.16,,
1353.693,-64.8,,
1353.708,-66.85,,
1353.723,-68.06,,
1353.738,-64.45,,
1353.753,-64.45,,
1353.768,-66.21,,
1353.783,-64.28,,
1353.798,-64.0,,
1353.813,-65.42,,
1353.828,-66.13,,
1353.843,-64.97,,
1353.858,-65.6,,
1353.873,-67.93,,
1353.888,-68.53,,
1353.903,-65.71,,
1353.918,-70.82,,
1353.933,-66.56,,
1353.948,-66.86,,
1353.963,-69.71,,
1353.978,-69.2,,
1353.993,-67.97,,
1354.008,-68.47,,
1354.023,-71.42,,
1354.038,-71.33,,
1354.053,-68.19,,
1354.068,-69.63,,
1354.083,-69.96,,
1354.098,-68.41,,
1354.113,-69.18,,
1354.128,-74.32,,
1354.143,-70.02,,
1354.158,-72.84,,
1354.173,-77.4,,
1354.188,-73.33,,
1354.203,-70.75,,
1354.218,-210.0,,
1354.233,-84.15,,
1354.248,-210.0,,
1354.263,-76.25,,
1354.278,-73.94,,
1354.293,-75.22,,
1354.308,-73.33,,
1354.323,-67.97,,
1354.338,-67.85,,
1354.353,-80.83,,
1354.368,-73.65,,
1354.383,-76.76,,
1354.398,-79.12,,
1354.413,-75.29,,
1354.428,-74.03,,
1354.443,-77.66,,
1354.458,-92.35,,
1354.473,-210.0,,
1354.488,-81.37,,
1354.503,-84.43,,
1354.518,-72.88,,
1354.533,-67.33,,
1354.548,-69.39,,
1354.563,-76.17,,
1354.578,-67.17,,
1354.593,-67.37,,
1354.608,-67.87,,
1354.623,-67.18,,
1354.638,-67.16,,
1354.653,-68.18,,
1354.668,-67.69,,
1354.683,-68.29,,
1354.698,-71.13,,
1354.713,-72.91,,
1354.728,-66.2,,
1354.743,-66.76,,
1354.758,-71.15,,
1354.773,-74.14,,
1354.788,-74.64,,
1354.803,-73.83,,
1354.818,-75.73,,
1354.833,-72.14,,
1354.848,-73.89,,
1354.863,-72.69,,
1354.878,-65.93,,
1354.893,-66.6,,
1354.908,-71.57,,
1354.923,-66.54,,
1354.938,-65.89,,
1354.953,-65.61,,
1354.968,-66.41,,
1354.983,-66.59,,
1354.998,-66.84,,
1355.013,-67.15,,
1355.028,-66.64,,
1355.043,-66.76,,
1355.058,-67.39,,
1355.073,-64.9,,
1355.088,-64.51,,
1355.103,-67.53,,
1355.118,-66.22,,
1355.133,-64.98,,
1355.148,-64.53,,
1355.163,-64.54,,
1355.178,-64.43,,
1355.193,-64.36,,
1355.208,-63.84,,
1355.223,-65.04,,
1355.238,-65.41,,
1355.253,-66.06,,
1355.268,-65.39,,
1355.283,-64.37,,
1355.298,-65.21,,
1355.313,-67.46,,
1355.328,-68.37,,
1355.343,-67.21,,
1355.358,-65.79,,
1355.373,-68.37,,
1355.388,-68.7,,
1355.403,-67.83,,
1355.418,-67.73,,
1355.433,-69.82,,
1355.448,-69.76,,
1355.463,-81.87,,
1355.478,-67.3,,
1355.493,-66.81,,
1355.508,-69.74,,
1355.523,-71.28,,
1355.538,-69.48,,
1355.553,-72.15,,
1355.568,-79.5,,
1355.583,-79.11,,
1355.598,-210.0,,
1355.613,-74.66,,
1355.628,-67.62,,
1355.643,-69.71,,
1355.658,-210.0,,
1355.673,-75.24,,
1355.688,-69.26,,
1355.703,-69.29,,
1355.718,-70.38,,
1355.733,-69.63,,
1355.748,-70.58,,
1355.763,-71.7,,
1355.778,-69.5,,
1355.793,-67.95,,
1355.808,-67.52,,
1355.823,-65.06,,
1355.838,-64.19,,
1355.853,-66.12,,
1355.868,-66.96,,
1355.883,-67.67,,
1355.898,-67.68,,
1355.913,-67.31,,
1355.928,-67.04,,
1355.943,-67.45,,
1355.958,-67.99,,
1355.973,-67.49,,
1355.988,-66.65,,
1356.003,-73.63,,
1356.018,-69.44,,
1356.033,-65.85,,
1356.048,-66.82,,
1356.063,-69.99,,
1356.078,-68.68,,
1356.093,-71.63,,
1356.108,-70.52,,
1356.123,-70.25,,
1356.138,-68.8,,
1356.153,-71.6,,
1356.168,-68.76,,
1356.183,-66.15,,
1356.198,-67.78,,
1356.213,-210.0,,
1356.228,-66.99,,
1356.243,-65.68,,
1356.258,-66.36,,
1356.273,-66.49,,
1356.288,-65.84,,
1356.303,-65.88,,
1356.318,-65.0,,
1356.333,-64.8,,
1356.348,-65.12,,
1356.363,-66.1,,
1356.378,-63.2,,
1356.393,-63.03,,
1356.408,-65.19,,
1356.423,-64.41,,
1356.438,-62.95,,
1356.453,-63.53,,
1356.468,-63.76,,
1356.483,-63.2,,
1356.498,-62.97,,
1356.513,-63.24,,
1356.528,-62.76,,
1356.543,-62.82,,
1356.558,-64.7,,
1356.573,-63.06,,
1356.588,-62.0,,
1356.603,-63.03,,
1356.618,-63.51,,
1356.633,-63.32,,
1356.648,-63.1,,
1356.663,-63.31,,
1356.678,-62.27,,
1356.693,-62.11,,
1356.708,-62.84,,
1356.723,-62.62,,
1356.738,-62.43,,
1356.753,-63.89,,
1356.768,-63.72,,
1356.783,-62.11,,
1356.798,-62.8,,
1356.813,-64.41,,
1356.828,-64.44,,
1356.843,-64.74,,
1356.858,-65.79,,
1356.873,-65.02,,
1356.888,-64.35,,
1356.903,-65.17,,
1356.918,-65.28,,
1356.933,-63.5,,
1356.948,-65.32,,
1356.963,-66.9,,
1356.978,-63.9,,
1356.993,-64.3,,
1357.008,-63.93,,
1357.023,-63.43,,
1357.038,-62.96,,
1357.053,-63.85,,
1357.068,-63.93,,
1357.083,-63.91,,
1357.098,-64.11,,
1357.113,-63.86,,
1357.128,-62.57,,
1357.143,-62.51,,
1357.158,-64.55,,
1357.173,-64.09,,
1357.188,-63.88,,
1357.203,-64.53,,
1357.219,-64.25,,
1357.233,-63.53,,
1357.248,-63.85,,
1357.263,-64.66,,
1357.278,-63.87,,
1357.293,-63.51,,
1357.308,-65.95,,
1357.323,-64.26,,
1357.339,-63.18,,
1357.354,-64.66,,
1357.369,-64.98,,
1357.383,-64.81,,
1357.398,-66.45,,
1357.413,-67.03,,
1357.428,-65.67,,
1357.443,-65.39,,
1357.458,-66.09,,
1357.474,-65.56,,
1357.489,-64.75,,
1357.504,-68.32,,
1357.518,-68.38,,
1357.533,-64.96,,
1357.548,-66.2,,
1357.563,-65.72,,
1357.578,-65.13,,
1357.594,-65.52,,
1357.609,-66.43,,
1357.624,-65.36,,
1357.639,-64.63,,
1357.654,-70.33,,
1357.668,-66.73,,
1357.683,-65.48,,
1357.698,-69.29,,
1357.714,-74.91,,
1357.729,-67.39,,
1357.744,-68.68,,
1357.759,-68.84,,
1357.774,-68.84,,
1357.789,-68.81,,
1357.803,-210.0,,
1357.818,-67.31,,
1357.833,-65.79,,
1357.849,-71.44,,
1357.864,-68.81,,
1357.879,-64.38,,
1357.894,-65.46,,
1357.909,-69.85,,
1357.924,-66.03,,
1357.939,-67.11,,
1357.953,-68.54,,
1357.969,-64.99,,
1357.984,-66.03,,
1357.999,-72.61,,
1358.014,-68.68,,
1358.029,-65.31,,
1358.044,-68.04,,
1358.059,-71.3,,
1358.074,-65.4,,
1358.089,-65.6,,
1358.104,-70.65,,
1358.119,-66.78,,
1358.134,-67.85,,
1358.149,-210.0,,
1358.164,-67.13,,
1358.179,-65.97,,
1358.194,-71.71,,
1358.209,-74.64,,
1358.224,-65.76,,
1358.239,-67.56,,
1358.254,-210.0,,
1358.269,-72.28,,
1358.284,-73.34,,
1358.299,-210.0,,
1358.314,-70.36,,
1358.329,-70.17,,
1358.344,-210.0,,
1358.359,-210.0,,
1358.374,-68.41,,
1358.389,-78.01,,
1358.404,-210.0,,
1358.419,-69.94,,
1358.434,-76.82,,
1358.449,-210.0,,
1358.464,-210.0,,
1358.479,-72.61,,
1358.494,-210.0,,
1358.509,-74.45,,
1358.524,-68.43,,
1358.539,-210.0,,
1358.554,-210.0,,
1358.569,-75.66,,
1358.584,-71.72,,
1358.599,-210.0,,
1358.614,-69.33,,
1358.629,-72.5,,
1358.644,-210.0,,
1358.659,-70.07,,
1358.674,-67.16,,
1358.689,-78.27,,
1358.704,-210.0,,
1358.719,-66.71,,
1358.734,-66.96,,
1358.749,-66.67,,
1358.764,-65.0,,
1358.779,-64.81,,
1358.794,-67.27,,
1358.809,-64.12,,
1358.824,-64.04,,
1358.839,-67.34,,
1358.854,-65.68,,
1358.869,-64.63,,
1358.884,-66.76,,
1358.899,-71.27,,
1358.914,-66.08,,
1358.929,-68.48,,
1358.944,-77.63,,
1358.959,-67.33,,
1358.974,-68.46,,
1358.989,-210.0,,
1359.004,-67.83,,
1359.019,-65.46,,
1359.034,-67.75,,
1359.049,-73.1,,
1359.064,-66.68,,
1359.079,-72.04,,
1359.094,-75.22,,
1359.109,-65.07,,
1359.124,-66.63,,
1359.139,-70.85,,
1359.154,-67.49,,
1359.169,-66.98,,
1359.184,-70.4,,
1359.199,-69.56,,
1359.214,-66.09,,
1359.229,-74.62,,
1359.244,-71.91,,
1359.259,-65.68,,
1359.274,-66.68,,
1359.289,-68.34,,
1359.304,-64.91,,
1359.319,-64.51,,
1359.334,-67.17,,
1359.349,-65.97,,
1359.364,-64.3,,
1359.379,-69.4,,
1359.394,-66.93,,
1359.409,-64.09,,
1359.424,-65.27,,
1359.439,-65.72,,
1359.454,-64.06,,
1359.469,-64.13,,
1359.484,-65.55,,
1359.499,-64.26,,
1359.514,-63.41,,
1359.529,-64.35,,
1359.544,-63.62,,
1359.559,-62.3,,
1359.574,-62.94,,
1359.589,-63.66,,
1359.604,-63.15,,
1359.619,-63.73,,
1359.634,-64.14,,
1359.649,-62.63,,
1359.664,-62.32,,
1359.679,-63.1,,
1359.694,-62.76,,
1359.709,-61.47,,
1359.724,-62.72,,
1359.739,-63.3,,
1359.754,-62.69,,
1359.769,-63.41,,
1359.784,-64.09,,
1359.799,-62.94,,
1359.814,-62.68,,
1359.829,-64.08,,
1359.844,-63.53,,
1359.859,-62.8,,
1359.874,-63.97,,
1359.889,-63.75,,
1359.904,-62.34,,
1359.919,-62.76,,
1359.934,-62.77,,
1359.949,-61.72,,
1359.964,-61.47,,
1359.979,-62.0,,
1359.994,-62.03,,
1360.009,-61.4,,
1360.024,-63.22,,
1360.039,-63.31,,
1360.054,-61.82,,
1360.069,-62.61,,
1360.084,-62.71,,
1360.099,-62.16,,
1360.114,-62.29,,
1360.129,-63.44,,
1360.144,-62.99,,
1360.159,-61.89,,
1360.174,-63.76,,
1360.189,-63.29,,
1360.204,-61.61,,
1360.219,-63.09,,
1360.234,-62.38,,
1360.249,-61.64,,
1360.264,-61.91,,
1360.279,-62.76,,
1360.294,-61.75,,
1360.309,-61.51,,
1360.324,-62.83,,
1360.339,-62.04,,
1360.354,-61.17,,
1360.369,-62.65,,
1360.384,-61.76,,
1360.399,-61.42,,
1360.414,-62.6,,
1360.429,-63.52,,
1360.444,-62.02,,
1360.459,-62.02,,
1360.474,-63.14,,
1360.489,-61.84,,
1360.504,-61.61,,
1360.519,-63.19,,
1360.534,-62.3,,
1360.549,-61.58,,
1360.564,-62.8,,
1360.579,-63.64,,
1360.594,-62.01,,
1360.609,-62.02,,
1360.624,-63.17,,
1360.639,-61.67,,
1360.654,-61.56,,
1360.669,-62.89,,
1360.684,-62.74,,
1360.699,-62.18,,
1360.714,-64.23,,
1360.729,-64.15,,
1360.744,-62.54,,
1360.759,-64.69,,
1360.774,-63.96,,
1360.789,-62.43,,
1360.804,-62.84,,
1360.819,-64.41,,
1360.834,-63.48,,
1360.849,-62.22,,
1360.864,-63.28,,
1360.879,-62.76,,
1360.894,-62.76,,
1360.909,-63.78,,
1360.924,-63.37,,
1360.939,-61.98,,
1360.954,-63.02,,
1360.969,-64.13,,
1360.984,-63.55,,
1360.999,-62.4,,
1361.014,-64.4,,
1361.029,-62.43,,
1361.044,-62.49,,
1361.059,-63.63,,
1361.074,-62.99,,
1361.089,-62.12,,
1361.104,-63.1,,
1361.119,-64.03,,
1361.134,-62.94,,
1361.149,-62.52,,
1361.164,-63.23,,
1361.179,-61.39,,
1361.194,-61.45,,
1361.209,-62.96,,
1361.224,-61.81,,
1361.239,-61.2,,
1361.254,-62.25,,
1361.269,-62.96,,
1361.284,-61.68,,
1361.299,-62.67,,
1361.314,-62.9,,
1361.329,-61.74,,
1361.344,-62.38,,
1361.359,-63.89,,
1361.374,-62.17,,
1361.389,-61.67,,
1361.404,-63.21,,
1361.419,-62.68,,
1361.434,-62.15,,
1361.449,-63.13,,
1361.464,-62.77,,
1361.479,-61.79,,
1361.494,-63.05,,
1361.509,-63.52,,
1361.524,-61.91,,
1361.539,-62.67,,
1361.554,-65.06,,
1361.569,-63.41,,
1361.584,-63.05,,
1361.599,-64.56,,
1361.614,-64.46,,
1361.629,-63.64,,
1361.644,-67.15,,
1361.659,-66.92,,
1361.674,-64.47,,
1361.689,-64.99,,
1361.704,-65.57,,
1361.719,-64.17,,
1361.734,-64.48,,
1361.749,-65.38,,
1361.764,-63.01,,
1361.779,-63.96,,
1361.794,-66.86,,
1361.809,-64.89,,
1361.824,-63.62,,
1361.839,-63.7,,
1361.854,-64.85,,
1361.869,-64.5,,
1361.884,-65.41,,
1361.899,-65.14,,
1361.914,-63.71,,
1361.929,-64.75,,
1361.944,-68.3,,
1361.959,-65.47,,
1361.974,-65.43,,
1361.989,-67.62,,
1362.004,-66.26,,
1362.019,-64.03,,
1362.034,-66.71,,
1362.049,-66.55,,
1362.064,-63.98,,
1362.079,-64.5,,
1362.094,-69.51,,
1362.109,-65.11,,
1362.124,-66.12,,
1362.139,-68.21,,
1362.154,-66.28,,
1362.169,-66.14,,
1362.184,-210.0,,
1362.199,-81.67,,
1362.214,-67.34,,
1362.229,-73.2,,
1362.244,-71.36,,
1362.259,-67.62,,
1362.274,-68.74,,
1362.289,-73.97,,
1362.304,-66.17,,
1362.319,-66.31,,
1362.334,-73.67,,
1362.349,-72.68,,
1362.364,-66.35,,
1362.379,-70.76,,
1362.394,-69.16,,
1362.409,-66.22,,
1362.424,-70.7,,
1362.439,-68.78,,
1362.454,-64.9,,
1362.469,-66.21,,
1362.484,-75.06,,
1362.499,-67.27,,
1362.514,-70.51,,
1362.529,-210.0,,
1362.544,-68.24,,
1362.559,-66.51,,
1362.574,-210.0,,
1362.589,-69.21,,
1362.604,-65.01,,
1362.619,-67.51,,
1362.634,-74.18,,
1362.649,-65.1,,
1362.664,-67.58,,
1362.679,-70.32,,
1362.694,-68.15,,
1362.709,-68.33,,
1362.724,-210.0,,
1362.739,-68.47,,
1362.754,-67.78,,
1362.769,-210.0,,
1362.784,-210.0,,
1362.799,-69.67,,
1362.814,-210.0,,
1362.829,-210.0,,
1362.844,-210.0,,
1362.859,-210.0,,
1362.874,-210.0,,
1362.889,-96.38,,
1362.904,-80.17,,
1362.919,-210.0,,
1362.934,-210.0,,
1362.949,-75.6,,
1362.964,-210.0,,
1362.979,-74.85,,
1362.994,-68.6,,
1363.009,-210.0,,
1363.024,-210.0,,
1363.039,-71.67,,
1363.054,-71.58,,
1363.069,-77.9,,
1363.084,-210.0,,
1363.099,-74.57,,
1363.114,-210.0,,
1363.129,-71.0,,
1363.144,-68.5,,
1363.159,-210.0,,
1363.174,-78.41,,
1363.189,-66.01,,
1363.204,-67.36,,
1363.219,-66.28,,
1363.234,-65.41,,
1363.249,-68.76,,
1363.264,-68.93,,
1363.279,-65.56,,
1363.294,-67.0,,
1363.309,-71.41,,
1363.324,-68.68,,
1363.339,-69.48,,
1363.354,-67.12,,
1363.369,-67.76,,
1363.384,-67.15,,
1363.399,-74.45,,
1363.414,-75.26,,
1363.429,-66.1,,
1363.444,-66.98,,
1363.459,-70.76,,
1363.474,-69.18,,
1363.489,-67.55,,
1363.504,-69.39,,
1363.519,-66.14,,
1363.534,-65.28,,
1363.549,-70.29,,
1363.564,-68.42,,
1363.579,-64.71,,
1363.594,-65.77,,
1363.609,-66.36,,
1363.624,-66.0,,
1363.639,-66.92,,
1363.654,-69.91,,
1363.669,-65.24,,
1363.684,-65.91,,
1363.699,-69.34,,
1363.714,-69.72,,
1363.729,-65.23,,
1363.744,-67.88,,
1363.759,-67.18,,
1363.774,-65.48,,
1363.789,-65.9,,
1363.804,-65.23,,
1363.819,-62.9,,
1363.834,-62.9,,
1363.849,-64.37,,
1363.864,-63.44,,
1363.879,-63.6,,
1363.894,-63.99,,
1363.909,-63.8,,
1363.924,-62.54,,
1363.939,-64.31,,
1363.954,-63.62,,
1363.969,-62.32,,
1363.984,-63.54,,
1363.999,-64.92,,
1364.014,-63.55,,
1364.029,-64.18,,
1364.044,-64.84,,
1364.059,-64.09,,
1364.074,-65.31,,
1364.089,-67.35,,
1364.104,-64.48,,
1364.119,-62.84,,
1364.134,-64.94,,
1364.149,-63.84,,
1364.164,-62.96,,
1364.179,-64.46,,
1364.194,-65.38,,
1364.209,-63.93,,
1364.224,-67.41,,
1364.239,-69.23,,
1364.254,-65.73,,
1364.269,-67.05,,
1364.284,-67.8,,
1364.299,-64.93,,
1364.314,-64.0,,
1364.329,-67.93,,
1364.344,-64.24,,
1364.359,-63.97,,
1364.374,-66.14,,
1364.389,-66.69,,
1364.404,-63.47,,
1364.419,-65.77,,
1364.434,-65.5,,
1364.449,-64.74,,
1364.464,-64.48,,
1364.479,-65.84,,
1364.494,-63.8,,
1364.509,-64.04,,
1364.524,-66.27,,
1364.539,-65.4,,
1364.554,-65.37,,
1364.569,-67.15,,
1364.584,-67.14,,
1364.599,-66.33,,
1364.614,-75.94,,
1364.629,-84.45,,
1364.644,-66.89,,
1364.659,-65.8,,
1364.674,-66.7,,
1364.689,-65.4,,
1364.704,-65.42,,
1364.719,-66.01,,
1364.734,-65.56,,
1364.749,-64.41,,
1364.764,-66.9,,
1364.779,-67.15,,
1364.794,-66.42,,
1364.809,-68.51,,
1364.824,-68.69,,
1364.839,-73.55,,
1364.854,-77.21,,
1364.869,-210.0,,
1364.884,-67.35,,
1364.899,-68.06,,
1364.914,-68.66,,
1364.929,-69.98,,
1364.944,-69.84,,
1364.959,-73.03,,
1364.974,-71.04,,
1364.989,-67.31,,
1365.004,-67.94,,
1365.019,-70.2,,
1365.034,-67.62,,
1365.049,-70.56,,
1365.064,-70.05,,
1365.079,-66.99,,
1365.094,-69.49,,
1365.109,-70.74,,
1365.124,-71.97,,
1365.139,-66.84,,
1365.154,-69.69,,
1365.169,-68.67,,
1365.184,-68.41,,
1365.199,-70.57,,
1365.214,-69.31,,
1365.229,-67.2,,
1365.245,-67.6,,
1365.259,-66.97,,
1365.274,-68.12,,
1365.289,-70.95,,
1365.304,-71.7,,
1365.319,-210.0,,
1365.334,-76.23,,
1365.349,-210.0,,
1365.365,-210.0,,
1365.38,-79.7,,
1365.395,-67.84,,
1365.409,-73.94,,
1365.424,-70.75,,
1365.439,-73.69,,
1365.454,-72.06,,
1365.469,-72.8,,
1365.484,-77.95,,
1365.5,-210.0,,
1365.515,-210.0,,
1365.53,-210.0,,
1365.544,-73.21,,
1365.559,-71.16,,
1365.574,-72.8,,
1365.589,-78.44,,
1365.604,-69.03,,
1365.62,-65.81,,
1365.635,-65.03,,
1365.65,-64.91,,
1365.665,-66.41,,
1365.68,-67.06,,
1365.694,-67.46,,
1365.709,-65.97,,
1365.724,-66.38,,
1365.74,-67.77,,
1365.755,-77.74,,
1365.77,-75.71,,
1365.785,-72.04,,
1365.8,-67.77,,
1365.815,-68.43,,
1365.83,-74.03,,
1365.844,-68.26,,
1365.859,-66.0,,
1365.875,-65.22,,
1365.89,-65.57,,
1365.905,-66.31,,
1365.92,-67.98,,
1365.935,-67.65,,
1365.95,-65.14,,
1365.965,-65.49,,
1365.979,-64.83,,
1365.995,-66.93,,
1366.01,-69.02,,
1366.025,-67.14,,
1366.04,-65.49,,
1366.055,-65.43,,
1366.07,-66.54,,
1366.085,-67.45,,
1366.1,-67.24,,
1366.115,-64.58,,
1366.13,-64.9,,
1366.145,-66.71,,
1366.16,-67.56,,
1366.175,-67.52,,
1366.19,-65.6,,
1366.205,-66.83,,
1366.22,-65.9,,
1366.235,-69.44,,
1366.25,-67.75,,
1366.265,-67.38,,
1366.28,-67.01,,
1366.295,-66.53,,
1366.31,-70.17,,
1366.325,-68.21,,
1366.34,-68.91,,
1366.355,-66.03,,
1366.37,-67.35,,
1366.385,-69.45,,
1366.4,-70.96,,
1366.415,-69.06,,
1366.43,-66.57,,
1366.445,-69.72,,
1366.46,-68.76,,
1366.475,-210.0,,
1366.49,-70.12,,
1366.505,-68.69,,
1366.52,-65.79,,
1366.535,-67.55,,
1366.55,-69.2,,
1366.565,-67.42,,
1366.58,-68.05,,
1366.595,-65.74,,
1366.61,-66.36,,
1366.625,-69.78,,
1366.64,-72.18,,
1366.655,-72.59,,
1366.67,-68.6,,
1366.685,-76.13,,
1366.7,-73.83,,
1366.715,-210.0,,
1366.73,-73.12,,
1366.745,-70.13,,
1366.76,-67.77,,
1366.775,-67.66,,
1366.79,-68.27,,
1366.805,-67.96,,
1366.82,-68.58,,
1366.835,-65.26,,
1366.85,-66.62,,
1366.865,-70.88,,
1366.88,-71.66,,
1366.895,-69.49,,
1366.91,-69.54,,
1366.925,-74.08,,
1366.94,-69.88,,
1366.955,-210.0,,
1366.97,-210.0,,
1366.985,-210.0,,
1367.0,-210.0,,
1367.015,-77.11,,
1367.03,-72.55,,
1367.045,-71.93,,
1367.06,-210.0,,
1367.075,-67.67,,
1367.09,-69.38,,
1367.105,-67.74,,
1367.12,-73.52,,
1367.135,-72.55,,
1367.15,-67.61,,
1367.165,-67.43,,
1367.18,-66.77,,
1367.195,-70.11,,
1367.21,-68.78,,
1367.225,-69.28,,
1367.24,-65.82,,
1367.255,-65.97,,
1367.27,-70.0,,
1367.285,-67.42,,
1367.3,-68.11,,
1367.315,-65.98,,
1367.33,-66.54,,
1367.345,-65.04,,
1367.36,-66.58,,
1367.375,-65.91,,
1367.39,-64.4,,
1367.405,-65.2,,
1367.42,-64.66,,
1367.435,-66.74,,
1367.45,-65.04,,
1367.465,-65.19,,
1367.48,-64.65,,
1367.495,-65.87,,
1367.51,-66.73,,
1367.525,-66.71,,
1367.54,-66.6,,
1367.555,-65.56,,
1367.57,-66.25,,
1367.585,-65.72,,
1367.6,-66.13,,
1367.615,-66.61,,
1367.63,-65.89,,
1367.645,-64.52,,
1367.66,-64.95,,
1367.675,-67.16,,
1367.69,-64.98,,
1367.705,-65.63,,
1367.72,-64.33,,
1367.735,-65.27,,
1367.75,-65.03,,
1367.765,-67.34,,
1367.78,-66.28,,
1367.795,-64.2,,
1367.81,-65.17,,
1367.825,-66.27,,
1367.84,-67.0,,
1367.855,-69.32,,
1367.87,-66.91,,
1367.885,-64.66,,
1367.9,-65.67,,
1367.915,-68.54,,
1367.93,-65.16,,
1367.945,-65.3,,
1367.96,-67.17,,
1367.975,-64.73,,
1367.99,-64.42,,
1368.005,-66.27,,
1368.02,-66.14,,
1368.035,-64.21,,
1368.05,-65.87,,
1368.065,-64.29,,
1368.08,-64.05,,
1368.095,-65.68,,
1368.11,-66.86,,
1368.125,-64.01,,
1368.14,-64.09,,
1368.155,-67.88,,
1368.17,-67.23,,
1368.185,-68.46,,
1368.2,-73.13,,
1368.215,-66.12,,
1368.23,-65.46,,
1368.245,-69.01,,
1368.26,-68.95,,
1368.275,-64.97,,
1368.29,-70.28,,
1368.305,-66.06,,
1368.32,-64.95,,
1368.335,-66.53,,
1368.35,-67.89,,
1368.365,-65.3,,
1368.38,-65.78,,
1368.395,-66.76,,
1368.41,-63.85,,
1368.425,-65.76,,
1368.44,-67.79,,
1368.455,-65.14,,
1368.47,-65.02,,
1368.485,-65.93,,
1368.5,-63.64,,
1368.515,-62.99,,
1368.53,-64.94,,
1368.545,-63.62,,
1368.56,-62.82,,
1368.575,-64.58,,
1368.59,-64.71,,
1368.605,-62.86,,
1368.62,-64.92,,
1368.635,-64.21,,
1368.65,-63.76,,
1368.665,-64.85,,
1368.68,-66.1,,
1368.695,-64.5,,
1368.71,-64.56,,
1368.725,-68.01,,
1368.74,-64.34,,
1368.755,-65.72,,
1368.77,-66.79,,
1368.785,-64.23,,
1368.8,-64.5,,
1368.815,-67.9,,
1368.83,-65.99,,
1368.845,-64.54,,
1368.86,-66.42,,
1368.875,-64.32,,
1368.89,-64.08,,
1368.905,-65.42,,
1368.92,-65.85,,
1368.935,-64.24,,
1368.95,-65.73,,
1368.965,-65.58,,
1368.98,-64.32,,
1368.995,-65.55,,
1369.01,-67.93,,
1369.025,-65.18,,
1369.04,-65.09,,
1369.055,-66.27,,
1369.07,-67.72,,
1369.085,-67.72,,
1369.1,-72.67,,
1369.115,-66.41,,
1369.13,-65.95,,
1369.145,-68.96,,
1369.16,-69.72,,
1369.175,-65.56,,
1369.19,-66.25,,
1369.205,-65.86,,
1369.22,-64.35,,
1369.235,-65.84,,
1369.25,-68.57,,
1369.265,-65.98,,
1369.28,-66.68,,
1369.295,-65.84,,
1369.31,-67.47,,
1369.325,-67.13,,
1369.34,-72.72,,
1369.355,-68.24,,
1369.37,-66.99,,
1369.385,-67.43,,
1369.4,-72.78,,
1369.415,-74.56,,
1369.43,-70.36,,
1369.445,-67.8,,
1369.46,-65.77,,
1369.475,-66.65,,
1369.49,-66.63,,
1369.505,-67.46,,
1369.52,-66.54,,
1369.535,-65.21,,
1369.55,-67.84,,
1369.565,-69.05,,
1369.58,-70.31,,
1369.595,-68.02,,
1369.61,-68.45,,
1369.625,-65.78,,
1369.64,-68.36,,
1369.655,-72.45,,
1369.67,-71.31,,
1369.685,-68.84,,
1369.7,-69.31,,
1369.715,-68.43,,
1369.73,-67.55,,
1369.745,-71.87,,
1369.76,-69.75,,
1369.775,-69.7,,
1369.79,-68.18,,
1369.805,-68.3,,
1369.82,-68.11,,
1369.835,-67.38,,
1369.85,-67.82,,
1369.865,-64.75,,
1369.88,-64.45,,
1369.895,-65.04,,
1369.91,-66.94,,
1369.925,-65.59,,
1369.94,-65.28,,
1369.955,-64.98,,
1369.97,-64.59,,
1369.985,-64.92,,
1370.0,-65.94,,
