wavelength_axis,light_level,mean_wavelength,,total_power
1230,-58.23,1310.573,,50
1230.02,-59.22,,,
1230.04,-59.58,,,
1230.06,-59.96,,,
1230.08,-59.61,,,
1230.1,-58.34,,,
1230.12,-57.96,,,
1230.14,-58.53,,,
1230.16,-59.48,,,
1230.18,-59.37,,,
1230.2,-58.19,,,
1230.22,-57.85,,,
1230.24,-57.9,,,
1230.26,-58.23,,,
1230.28,-59.27,,,
1230.3,-59.67,,,
1230.32,-58.9,,,
1230.34,-57.91,,,
1230.36,-58.24,,,
1230.38,-59.32,,,
1230.4,-59.53,,,
1230.42,-59.42,,,
1230.44,-59.36,,,
1230.46,-58.67,,,
1230.48,-58.53,,,
1230.5,-59.05,,,
1230.52,-60.34,,,
1230.54,-59.81,,,
1230.56,-58.59,,,
1230.58,-58.67,,,
1230.6,-59.81,,,
1230.62,-59.59,,,
1230.64,-60.72,,,
1230.66,-60.84,,,
1230.68,-59.74,,,
1230.7,-58.94,,,
1230.72,-59.39,,,
1230.74,-60.03,,,
1230.76,-60.35,,,
1230.78,-60.61,,,
1230.8,-59.75,,,
1230.82,-58.51,,,
1230.84,-58.54,,,
1230.86,-59.55,,,
1230.88,-60.79,,,
1230.9,-59.72,,,
1230.92,-58.65,,,
1230.94,-58.72,,,
1230.96,-58.71,,,
1230.98,-59.63,,,
1231,-60.2,,,
1231.02,-59.78,,,
1231.04,-58.72,,,
1231.06,-58.25,,,
1231.08,-58.86,,,
1231.1,-60.36,,,
1231.12,-60.67,,,
1231.14,-59.63,,,
1231.16,-58.6,,,
1231.18,-58.35,,,
1231.2,-58.69,,,
1231.22,-59.71,,,
1231.24,-60.64,,,
1231.26,-59.54,,,
1231.28,-58.94,,,
1231.3,-58.39,,,
1231.32,-58.88,,,
1231.34,-59.85,,,
1231.36,-60.04,,,
1231.38,-58.95,,,
1231.4,-58.8,,,
1231.42,-58.62,,,
1231.44,-58.87,,,
1231.46,-59.41,,,
1231.48,-60.09,,,
1231.5,-59.27,,,
1231.52,-58.34,,,
1231.54,-58.61,,,
1231.56,-58.97,,,
1231.58,-59.07,,,
1231.6,-59.44,,,
1231.62,-58.36,,,
1231.64,-57.91,,,
1231.66,-57.83,,,
1231.68,-58.12,,,
1231.7,-58.95,,,
1231.72,-58.99,,,
1231.74,-58.47,,,
1231.76,-57.6,,,
1231.78,-57.63,,,
1231.8,-58.85,,,
1231.82,-59.87,,,
1231.84,-59.8,,,
1231.86,-58.72,,,
1231.88,-58.48,,,
1231.9,-58.6,,,
1231.92,-58.85,,,
1231.94,-60.51,,,
1231.96,-60.61,,,
1231.98,-58.85,,,
1232,-58.51,,,
1232.02,-58.81,,,
1232.04,-59.34,,,
1232.06,-60.33,,,
1232.08,-59.34,,,
1232.1,-58.34,,,
1232.12,-57.86,,,
1232.14,-58.04,,,
1232.16,-59.26,,,
1232.18,-59.56,,,
1232.2,-58.77,,,
1232.22,-57.92,,,
1232.24,-57.83,,,
1232.26,-57.77,,,
1232.28,-58.52,,,
1232.3,-59.33,,,
1232.32,-59,,,
1232.34,-58.03,,,
1232.36,-57.87,,,
1232.38,-58.63,,,
1232.4,-59.48,,,
1232.42,-59.07,,,
1232.44,-59.36,,,
1232.46,-58.18,,,
1232.48,-57.68,,,
1232.5,-58.11,,,
1232.52,-58.98,,,
1232.54,-59.24,,,
1232.56,-58.51,,,
1232.58,-57.9,,,
1232.6,-58.19,,,
1232.62,-58.97,,,
1232.64,-59.2,,,
1232.66,-59.34,,,
1232.68,-58.73,,,
1232.7,-57.94,,,
1232.72,-58,,,
1232.74,-59.09,,,
1232.76,-60,,,
1232.78,-59.08,,,
1232.8,-58.21,,,
1232.82,-57.77,,,
1232.84,-58.04,,,
1232.86,-58.57,,,
1232.88,-58.62,,,
1232.9,-58.58,,,
1232.92,-57.79,,,
1232.94,-57.11,,,
1232.96,-57.73,,,
1232.98,-58.47,,,
1233,-58.29,,,
1233.02,-58.22,,,
1233.04,-57.57,,,
1233.06,-57.62,,,
1233.08,-58.37,,,
1233.1,-58.41,,,
1233.12,-58.51,,,
1233.141,-57.91,,,
1233.16,-57.94,,,
1233.18,-58.04,,,
1233.2,-58.85,,,
1233.22,-59.21,,,
1233.24,-59.23,,,
1233.26,-58.69,,,
1233.281,-58.18,,,
1233.3,-58.46,,,
1233.32,-59.1,,,
1233.34,-59.12,,,
1233.36,-58.49,,,
1233.38,-57.96,,,
1233.401,-58.54,,,
1233.421,-58.32,,,
1233.44,-58.89,,,
1233.46,-58.86,,,
1233.48,-58.82,,,
1233.5,-58.25,,,
1233.521,-58.43,,,
1233.541,-59.12,,,
1233.561,-59.14,,,
1233.58,-59.23,,,
1233.6,-58.64,,,
1233.62,-58.48,,,
1233.641,-59.29,,,
1233.661,-59.69,,,
1233.681,-60.43,,,
1233.701,-60.4,,,
1233.72,-59.78,,,
1233.74,-59.16,,,
1233.76,-59.82,,,
1233.781,-60.55,,,
1233.801,-60.83,,,
1233.821,-59.97,,,
1233.841,-59.27,,,
1233.86,-59.02,,,
1233.88,-59.46,,,
1233.901,-60,,,
1233.921,-60.87,,,
1233.941,-60.38,,,
1233.961,-59.33,,,
1233.981,-59.42,,,
1234.001,-60.08,,,
1234.021,-60.43,,,
1234.041,-60.25,,,
1234.061,-59.47,,,
1234.081,-58.87,,,
1234.101,-59.05,,,
1234.121,-60.13,,,
1234.141,-60.05,,,
1234.161,-59.98,,,
1234.181,-58.87,,,
1234.201,-58.56,,,
1234.221,-58.99,,,
1234.241,-59.68,,,
1234.261,-60.84,,,
1234.281,-59.81,,,
1234.301,-58.54,,,
1234.321,-58.28,,,
1234.341,-59.18,,,
1234.361,-60.27,,,
1234.381,-59.82,,,
1234.401,-59.33,,,
1234.421,-58.31,,,
1234.441,-58.05,,,
1234.461,-58.6,,,
1234.481,-60.09,,,
1234.501,-60,,,
1234.521,-58.68,,,
1234.541,-58.25,,,
1234.561,-58.58,,,
1234.581,-59.79,,,
1234.601,-59.97,,,
1234.621,-58.95,,,
1234.641,-58.29,,,
1234.661,-57.81,,,
1234.681,-57.72,,,
1234.701,-58.25,,,
1234.721,-58.74,,,
1234.741,-58.3,,,
1234.761,-57.32,,,
1234.781,-57.31,,,
1234.801,-57.9,,,
1234.821,-58.55,,,
1234.841,-58.65,,,
1234.861,-58.83,,,
1234.881,-58.1,,,
1234.901,-57.7,,,
1234.921,-57.96,,,
1234.941,-58.78,,,
1234.961,-59.33,,,
1234.981,-58.18,,,
1235.001,-57.79,,,
1235.021,-58.13,,,
1235.041,-58.52,,,
1235.061,-58.81,,,
1235.081,-59.95,,,
1235.101,-59.28,,,
1235.121,-58.34,,,
1235.141,-58.22,,,
1235.161,-58.97,,,
1235.181,-60.17,,,
1235.201,-59.55,,,
1235.221,-59.01,,,
1235.241,-58.37,,,
1235.261,-58.04,,,
1235.281,-58.71,,,
1235.301,-59.98,,,
1235.321,-59.92,,,
1235.341,-58.87,,,
1235.361,-58.3,,,
1235.381,-58.93,,,
1235.401,-59.46,,,
1235.421,-59.88,,,
1235.441,-59.73,,,
1235.461,-58.63,,,
1235.481,-58.11,,,
1235.501,-58.34,,,
1235.521,-59.5,,,
1235.541,-60.38,,,
1235.561,-58.68,,,
1235.581,-58.02,,,
1235.601,-57.97,,,
1235.621,-58.55,,,
1235.641,-59.09,,,
1235.661,-59.01,,,
1235.681,-58.51,,,
1235.701,-58.07,,,
1235.721,-57.69,,,
1235.741,-58.4,,,
1235.761,-59.24,,,
1235.781,-59.18,,,
1235.801,-58.12,,,
1235.821,-57.88,,,
1235.841,-57.81,,,
1235.861,-58.37,,,
1235.881,-58.55,,,
1235.901,-58.26,,,
1235.921,-58.1,,,
1235.941,-57.59,,,
1235.961,-57.45,,,
1235.981,-58.35,,,
1236.001,-58.49,,,
1236.021,-57.82,,,
1236.041,-57.69,,,
1236.061,-57.34,,,
1236.081,-57.49,,,
1236.101,-57.59,,,
1236.121,-57.48,,,
1236.141,-57.51,,,
1236.161,-57.32,,,
1236.181,-57.35,,,
1236.201,-57.82,,,
1236.221,-57.73,,,
1236.241,-57.83,,,
1236.261,-57.8,,,
1236.281,-57.62,,,
1236.301,-57.96,,,
1236.321,-57.83,,,
1236.341,-58.17,,,
1236.361,-57.6,,,
1236.381,-57.6,,,
1236.401,-57.68,,,
1236.421,-58.02,,,
1236.441,-57.55,,,
1236.461,-57.78,,,
1236.481,-57.86,,,
1236.501,-57.7,,,
1236.521,-57.35,,,
1236.541,-58.02,,,
1236.561,-57.96,,,
1236.581,-57.97,,,
1236.601,-57.74,,,
1236.621,-57.67,,,
1236.641,-58.18,,,
1236.661,-58.07,,,
1236.681,-57.91,,,
1236.701,-58.37,,,
1236.721,-58.23,,,
1236.741,-58.05,,,
1236.761,-58.29,,,
1236.781,-58.54,,,
1236.801,-58.54,,,
1236.821,-58.43,,,
1236.841,-58.09,,,
1236.861,-58.22,,,
1236.881,-58.7,,,
1236.901,-58.68,,,
1236.921,-58.13,,,
1236.941,-58.81,,,
1236.961,-58.12,,,
1236.981,-58.25,,,
1237.001,-58.84,,,
1237.021,-59.03,,,
1237.041,-58.86,,,
1237.061,-58.15,,,
1237.081,-58.28,,,
1237.101,-59.01,,,
1237.121,-59.49,,,
1237.141,-58.81,,,
1237.161,-58.48,,,
1237.181,-58.56,,,
1237.201,-58.77,,,
1237.221,-59.29,,,
1237.241,-59.86,,,
1237.261,-59.61,,,
1237.281,-58.52,,,
1237.301,-58.34,,,
1237.321,-58.81,,,
1237.341,-59.85,,,
1237.361,-59.34,,,
1237.381,-58.77,,,
1237.401,-57.99,,,
1237.421,-58.99,,,
1237.441,-59.51,,,
1237.461,-60.53,,,
1237.481,-60.23,,,
1237.501,-59.7,,,
1237.521,-59,,,
1237.541,-59.04,,,
1237.561,-59.92,,,
1237.581,-60.35,,,
1237.601,-59.96,,,
1237.621,-58.9,,,
1237.641,-59.15,,,
1237.661,-60.25,,,
1237.681,-60.09,,,
1237.701,-60.23,,,
1237.721,-60.22,,,
1237.741,-59.27,,,
1237.761,-59.03,,,
1237.781,-59.63,,,
1237.801,-60.08,,,
1237.821,-59.98,,,
1237.841,-59.34,,,
1237.861,-58.9,,,
1237.881,-59.43,,,
1237.901,-59.83,,,
1237.921,-59.51,,,
1237.941,-59.58,,,
1237.961,-59.11,,,
1237.981,-58.5,,,
1238.001,-58.6,,,
1238.021,-59.42,,,
1238.041,-59.46,,,
1238.061,-59.36,,,
1238.081,-58.99,,,
1238.101,-58.93,,,
1238.121,-59.64,,,
1238.141,-59.81,,,
1238.161,-59.65,,,
1238.181,-59.13,,,
1238.201,-58.87,,,
1238.221,-58.19,,,
1238.241,-58.78,,,
1238.261,-58.92,,,
1238.281,-58.66,,,
1238.301,-58.42,,,
1238.321,-57.93,,,
1238.341,-58.65,,,
1238.361,-58.77,,,
1238.381,-58.8,,,
1238.401,-58.32,,,
1238.421,-58.44,,,
1238.441,-58.32,,,
1238.461,-58.28,,,
1238.481,-59.22,,,
1238.501,-58.68,,,
1238.521,-58.68,,,
1238.541,-58.06,,,
1238.561,-58.37,,,
1238.581,-58.85,,,
1238.601,-58.68,,,
1238.621,-58.45,,,
1238.641,-58.11,,,
1238.661,-58.43,,,
1238.681,-58.44,,,
1238.701,-58.14,,,
1238.721,-58.6,,,
1238.741,-58.4,,,
1238.761,-58,,,
1238.781,-58.07,,,
1238.801,-58.5,,,
1238.821,-58.55,,,
1238.841,-58.37,,,
1238.861,-57.68,,,
1238.881,-57.81,,,
1238.901,-58.37,,,
1238.921,-58.39,,,
1238.941,-58.34,,,
1238.961,-58.57,,,
1238.981,-58.42,,,
1239.001,-57.79,,,
1239.021,-58.29,,,
1239.041,-58.62,,,
1239.061,-58.2,,,
1239.081,-57.99,,,
1239.101,-57.53,,,
1239.121,-58.17,,,
1239.141,-58.39,,,
1239.161,-58.15,,,
1239.181,-57.75,,,
1239.201,-58.01,,,
1239.221,-57.42,,,
1239.241,-57.65,,,
1239.261,-58.14,,,
1239.281,-58.21,,,
1239.301,-58.15,,,
1239.321,-57.76,,,
1239.341,-57.66,,,
1239.361,-58.32,,,
1239.381,-58.73,,,
1239.401,-58.32,,,
1239.421,-57.83,,,
1239.441,-57.99,,,
1239.461,-57.85,,,
1239.481,-58.25,,,
1239.501,-58.38,,,
1239.521,-58.45,,,
1239.541,-57.87,,,
1239.561,-57.54,,,
1239.581,-58.3,,,
1239.601,-58.53,,,
1239.621,-58.44,,,
1239.641,-57.74,,,
1239.661,-57.59,,,
1239.681,-58.4,,,
1239.701,-58.53,,,
1239.721,-58.29,,,
1239.741,-58.52,,,
1239.761,-58.29,,,
1239.781,-58.22,,,
1239.801,-58.25,,,
1239.821,-58.88,,,
1239.841,-59.81,,,
1239.861,-59.36,,,
1239.881,-58.4,,,
1239.901,-58.09,,,
1239.921,-58.97,,,
1239.941,-59.05,,,
1239.961,-58.88,,,
1239.981,-59.19,,,
1240.001,-58.79,,,
1240.021,-58.8,,,
1240.041,-59.24,,,
1240.061,-59.57,,,
1240.081,-59.38,,,
1240.101,-58.84,,,
1240.121,-58.35,,,
1240.141,-58.56,,,
1240.161,-59.52,,,
1240.181,-59.34,,,
1240.201,-59.53,,,
1240.221,-59.33,,,
1240.241,-59.21,,,
1240.261,-59.52,,,
1240.281,-59.93,,,
1240.301,-59.71,,,
1240.321,-59.87,,,
1240.341,-59.32,,,
1240.361,-59.62,,,
1240.381,-59.76,,,
1240.401,-59.63,,,
1240.421,-59.88,,,
1240.441,-59.73,,,
1240.461,-59.66,,,
1240.481,-59.63,,,
1240.501,-59.52,,,
1240.521,-59.91,,,
1240.541,-59.77,,,
1240.561,-59.27,,,
1240.581,-59.41,,,
1240.601,-59.98,,,
1240.621,-60.04,,,
1240.641,-60.29,,,
1240.661,-59.51,,,
1240.681,-59.33,,,
1240.701,-59.99,,,
1240.721,-59.81,,,
1240.741,-60.49,,,
1240.761,-59.87,,,
1240.781,-59.52,,,
1240.801,-59.4,,,
1240.821,-59,,,
1240.841,-59.05,,,
1240.861,-59.02,,,
1240.881,-59.29,,,
1240.901,-59.07,,,
1240.921,-58.98,,,
1240.941,-59.19,,,
1240.961,-58.84,,,
1240.981,-59,,,
1241.001,-58.47,,,
1241.021,-58.24,,,
1241.041,-58.73,,,
1241.061,-59.07,,,
1241.081,-59.02,,,
1241.101,-58.89,,,
1241.121,-59.2,,,
1241.141,-58.99,,,
1241.161,-59.4,,,
1241.181,-59.19,,,
1241.201,-59.07,,,
1241.221,-58.95,,,
1241.241,-58.1,,,
1241.261,-58.26,,,
1241.281,-58.96,,,
1241.302,-58.61,,,
1241.321,-58.78,,,
1241.341,-57.94,,,
1241.361,-57.86,,,
1241.381,-58.57,,,
1241.401,-58.88,,,
1241.422,-58.54,,,
1241.442,-58.12,,,
1241.461,-57.93,,,
1241.481,-58.07,,,
1241.501,-58.18,,,
1241.521,-58.84,,,
1241.542,-58.9,,,
1241.562,-58.23,,,
1241.582,-57.77,,,
1241.601,-58.32,,,
1241.621,-58.73,,,
1241.641,-58.99,,,
1241.661,-58.53,,,
1241.682,-57.88,,,
1241.702,-58.21,,,
1241.722,-58.41,,,
1241.742,-58.19,,,
1241.761,-58.34,,,
1241.781,-58.39,,,
1241.802,-58.23,,,
1241.822,-57.94,,,
1241.842,-58.68,,,
1241.862,-58.8,,,
1241.882,-58.52,,,
1241.901,-58.11,,,
1241.922,-58.07,,,
1241.942,-58.67,,,
1241.962,-58.8,,,
1241.982,-58.98,,,
1242.002,-59.42,,,
1242.022,-59.01,,,
1242.042,-59.27,,,
1242.062,-58.96,,,
1242.082,-58.82,,,
1242.102,-58.72,,,
1242.122,-58.86,,,
1242.142,-58.61,,,
1242.162,-58.54,,,
1242.182,-59.09,,,
1242.202,-58.85,,,
1242.222,-59.06,,,
1242.242,-59.41,,,
1242.262,-59.08,,,
1242.282,-59.39,,,
1242.302,-58.9,,,
1242.322,-59.08,,,
1242.342,-59.4,,,
1242.362,-59.49,,,
1242.382,-59.5,,,
1242.402,-59.11,,,
1242.422,-59.12,,,
1242.442,-59.39,,,
1242.462,-59.79,,,
1242.482,-59.98,,,
1242.502,-59.75,,,
1242.522,-59.62,,,
1242.542,-59.64,,,
1242.562,-59.67,,,
1242.582,-59.84,,,
1242.602,-59.71,,,
1242.622,-59.45,,,
1242.642,-59.35,,,
1242.662,-59.36,,,
1242.682,-59.83,,,
1242.702,-59.44,,,
1242.722,-60.06,,,
1242.742,-59.89,,,
1242.762,-59.79,,,
1242.782,-59.84,,,
1242.802,-61.36,,,
1242.822,-60.56,,,
1242.842,-60.47,,,
1242.862,-60.24,,,
1242.882,-60.66,,,
1242.902,-60.84,,,
1242.922,-60.56,,,
1242.942,-60.75,,,
1242.962,-61,,,
1242.982,-60.74,,,
1243.002,-60.55,,,
1243.022,-60.35,,,
1243.042,-60.75,,,
1243.062,-60.73,,,
1243.082,-60.86,,,
1243.102,-60.85,,,
1243.122,-60.49,,,
1243.142,-61.24,,,
1243.162,-60.76,,,
1243.182,-61.19,,,
1243.202,-61.47,,,
1243.222,-61.41,,,
1243.242,-60.75,,,
1243.262,-60.47,,,
1243.282,-61.72,,,
1243.302,-62.1,,,
1243.322,-62.19,,,
1243.342,-61.53,,,
1243.362,-61.34,,,
1243.382,-61.38,,,
1243.402,-61.47,,,
1243.422,-61.35,,,
1243.442,-60.79,,,
1243.462,-60.62,,,
1243.482,-60.88,,,
1243.502,-60.34,,,
1243.522,-60.43,,,
1243.542,-60.62,,,
1243.562,-60.19,,,
1243.582,-59.57,,,
1243.602,-60.11,,,
1243.622,-60.14,,,
1243.642,-60.32,,,
1243.662,-59.8,,,
1243.682,-59.77,,,
1243.702,-59.87,,,
1243.722,-59.88,,,
1243.742,-60.12,,,
1243.762,-60.23,,,
1243.782,-59.47,,,
1243.802,-59.78,,,
1243.822,-59.6,,,
1243.842,-60.04,,,
1243.862,-59.79,,,
1243.882,-59.57,,,
1243.902,-59.51,,,
1243.922,-59.52,,,
1243.942,-59.26,,,
1243.962,-59.01,,,
1243.982,-59.37,,,
1244.002,-59.31,,,
1244.022,-58.96,,,
1244.042,-59.21,,,
1244.062,-59.02,,,
1244.082,-59.09,,,
1244.102,-59.35,,,
1244.122,-59.29,,,
1244.142,-59.83,,,
1244.162,-59.11,,,
1244.182,-59.38,,,
1244.202,-58.81,,,
1244.222,-59.04,,,
1244.242,-59.42,,,
1244.262,-59.31,,,
1244.282,-58.9,,,
1244.302,-58.59,,,
1244.322,-58.88,,,
1244.342,-58.67,,,
1244.362,-58.5,,,
1244.382,-58.69,,,
1244.402,-58.46,,,
1244.422,-58.65,,,
1244.442,-59.1,,,
1244.462,-59.02,,,
1244.482,-58.98,,,
1244.502,-58.17,,,
1244.522,-58.3,,,
1244.542,-58.21,,,
1244.562,-58.73,,,
1244.582,-58.83,,,
1244.602,-58.8,,,
1244.622,-58.36,,,
1244.642,-58.47,,,
1244.662,-58.93,,,
1244.682,-58.84,,,
1244.702,-59.04,,,
1244.722,-58.37,,,
1244.742,-58.26,,,
1244.762,-58.44,,,
1244.782,-58.47,,,
1244.802,-58.68,,,
1244.822,-58.36,,,
1244.842,-57.8,,,
1244.862,-58.03,,,
1244.882,-58.16,,,
1244.902,-58.13,,,
1244.922,-58.51,,,
1244.942,-58.31,,,
1244.962,-58.17,,,
1244.982,-58.24,,,
1245.002,-58.51,,,
1245.022,-58.64,,,
1245.042,-58.36,,,
1245.062,-58.13,,,
1245.082,-58.17,,,
1245.102,-58.37,,,
1245.122,-58.5,,,
1245.142,-58.79,,,
1245.162,-57.74,,,
1245.182,-57.54,,,
1245.202,-57.63,,,
1245.222,-57.8,,,
1245.242,-57.64,,,
1245.262,-57.85,,,
1245.282,-57.71,,,
1245.302,-57.51,,,
1245.322,-57.64,,,
1245.342,-57.85,,,
1245.362,-58.03,,,
1245.382,-57.65,,,
1245.402,-57.96,,,
1245.422,-57.69,,,
1245.442,-57.73,,,
1245.462,-57.94,,,
1245.482,-58.01,,,
1245.502,-57.45,,,
1245.522,-57.77,,,
1245.542,-57.68,,,
1245.562,-57.81,,,
1245.582,-57.75,,,
1245.602,-57.9,,,
1245.622,-57.71,,,
1245.642,-57.6,,,
1245.662,-57.88,,,
1245.682,-57.67,,,
1245.702,-58.06,,,
1245.722,-57.74,,,
1245.742,-57.83,,,
1245.762,-57.97,,,
1245.782,-58.08,,,
1245.802,-57.92,,,
1245.822,-57.84,,,
1245.842,-57.45,,,
1245.862,-57.57,,,
1245.882,-58.27,,,
1245.902,-58.21,,,
1245.922,-57.71,,,
1245.942,-57.49,,,
1245.962,-57.72,,,
1245.982,-58.37,,,
1246.002,-58.57,,,
1246.022,-57.73,,,
1246.042,-58.02,,,
1246.062,-57.95,,,
1246.082,-58.18,,,
1246.102,-58.16,,,
1246.122,-58.37,,,
1246.142,-57.96,,,
1246.162,-57.79,,,
1246.182,-57.93,,,
1246.202,-58.79,,,
1246.222,-59.44,,,
1246.242,-58.78,,,
1246.262,-57.93,,,
1246.282,-58.09,,,
1246.302,-58.5,,,
1246.322,-59.7,,,
1246.342,-58.79,,,
1246.362,-58.52,,,
1246.382,-58.16,,,
1246.402,-58.6,,,
1246.422,-60,,,
1246.442,-59.22,,,
1246.462,-58.73,,,
1246.482,-58.63,,,
1246.502,-58.49,,,
1246.522,-59.59,,,
1246.542,-59.91,,,
1246.562,-60.1,,,
1246.582,-58.86,,,
1246.602,-58.39,,,
1246.622,-58.58,,,
1246.642,-59.75,,,
1246.662,-60.32,,,
1246.682,-58.78,,,
1246.702,-58.39,,,
1246.722,-58.38,,,
1246.742,-59.37,,,
1246.762,-59.82,,,
1246.782,-59.31,,,
1246.802,-58.64,,,
1246.822,-58.59,,,
1246.842,-59.15,,,
1246.862,-60.66,,,
1246.882,-59.66,,,
1246.902,-58.67,,,
1246.922,-58.67,,,
1246.942,-59.44,,,
1246.962,-59.84,,,
1246.982,-58.74,,,
1247.002,-58.69,,,
1247.022,-58.05,,,
1247.042,-58.17,,,
1247.062,-58.59,,,
1247.082,-59.74,,,
1247.102,-59.27,,,
1247.122,-58.3,,,
1247.142,-58.26,,,
1247.162,-58.69,,,
1247.182,-59.1,,,
1247.202,-59.34,,,
1247.222,-58.79,,,
1247.242,-58.68,,,
1247.262,-58.84,,,
1247.282,-60.09,,,
1247.302,-59.96,,,
1247.322,-58.97,,,
1247.342,-58.51,,,
1247.362,-58.72,,,
1247.382,-59.57,,,
1247.402,-59.52,,,
1247.422,-59,,,
1247.442,-58.22,,,
1247.462,-58.44,,,
1247.482,-59.19,,,
1247.502,-59.22,,,
1247.522,-59.08,,,
1247.542,-58.22,,,
1247.562,-58.3,,,
1247.582,-58.13,,,
1247.602,-59.01,,,
1247.622,-59.6,,,
1247.642,-58.92,,,
1247.662,-58.33,,,
1247.682,-58.47,,,
1247.702,-59.25,,,
1247.722,-60.23,,,
1247.742,-59.55,,,
1247.762,-58.73,,,
1247.782,-58.36,,,
1247.802,-58.81,,,
1247.822,-60.38,,,
1247.842,-59.46,,,
1247.862,-58.43,,,
1247.882,-58.3,,,
1247.902,-58.64,,,
1247.922,-59.45,,,
1247.942,-59.52,,,
1247.962,-58.9,,,
1247.982,-58.55,,,
1248.002,-58.74,,,
1248.022,-59.44,,,
1248.042,-60.48,,,
1248.062,-60.94,,,
1248.082,-59.35,,,
1248.102,-59.02,,,
1248.122,-59.31,,,
1248.142,-60.24,,,
1248.162,-61.29,,,
1248.182,-59.82,,,
1248.202,-58.88,,,
1248.222,-58.81,,,
1248.242,-59.83,,,
1248.262,-60.67,,,
1248.282,-59.55,,,
1248.302,-58.7,,,
1248.322,-58.77,,,
1248.342,-59.41,,,
1248.362,-60.62,,,
1248.382,-59.84,,,
1248.402,-58.79,,,
1248.422,-58.89,,,
1248.442,-59.4,,,
1248.462,-60.43,,,
1248.482,-59.9,,,
1248.502,-59.46,,,
1248.522,-59.4,,,
1248.542,-59.35,,,
1248.562,-60.59,,,
1248.582,-61.18,,,
1248.602,-61.42,,,
1248.622,-59.91,,,
1248.642,-59.69,,,
1248.662,-59.89,,,
1248.682,-60.78,,,
1248.702,-60.87,,,
1248.722,-59.79,,,
1248.742,-59.15,,,
1248.762,-59.47,,,
1248.782,-60.54,,,
1248.802,-60.93,,,
1248.822,-60.06,,,
1248.842,-59.4,,,
1248.862,-59.37,,,
1248.882,-60.73,,,
1248.902,-61.19,,,
1248.922,-60.48,,,
1248.942,-59.62,,,
1248.962,-59.55,,,
1248.982,-60.58,,,
1249.002,-61.98,,,
1249.022,-61.85,,,
1249.042,-59.8,,,
1249.062,-59.22,,,
1249.082,-59.48,,,
1249.102,-59.75,,,
1249.122,-60.49,,,
1249.142,-59.95,,,
1249.162,-59.47,,,
1249.182,-59.21,,,
1249.202,-59.59,,,
1249.222,-60.71,,,
1249.242,-59.99,,,
1249.262,-58.84,,,
1249.282,-58.65,,,
1249.302,-59.03,,,
1249.323,-60.35,,,
1249.343,-60.12,,,
1249.362,-58.99,,,
1249.382,-58.79,,,
1249.402,-59.13,,,
1249.422,-60.17,,,
1249.443,-60.53,,,
1249.463,-59.73,,,
1249.483,-59.17,,,
1249.502,-59,,,
1249.522,-59.46,,,
1249.542,-59.75,,,
1249.563,-59.92,,,
1249.583,-58.72,,,
1249.603,-58.55,,,
1249.623,-58.37,,,
1249.642,-58.63,,,
1249.662,-59.25,,,
1249.682,-58.79,,,
1249.703,-58.24,,,
1249.723,-58.21,,,
1249.743,-58.44,,,
1249.763,-58.71,,,
1249.782,-59.11,,,
1249.802,-58.24,,,
1249.823,-57.92,,,
1249.843,-58.23,,,
1249.863,-58.59,,,
1249.883,-58.92,,,
1249.903,-58.24,,,
1249.922,-57.87,,,
1249.943,-58.31,,,
1249.963,-58.54,,,
1249.983,-58.79,,,
1250.003,-58.43,,,
1250.023,-58.04,,,
1250.043,-58.03,,,
1250.063,-58.21,,,
1250.083,-59.03,,,
1250.103,-59.33,,,
1250.123,-58.78,,,
1250.143,-58.42,,,
1250.163,-58.21,,,
1250.183,-58.66,,,
1250.203,-59.14,,,
1250.223,-58.89,,,
1250.243,-58.71,,,
1250.263,-58.75,,,
1250.283,-59.38,,,
1250.303,-59.5,,,
1250.323,-59.16,,,
1250.343,-58.54,,,
1250.363,-58.37,,,
1250.383,-58.73,,,
1250.403,-59.14,,,
1250.423,-59.2,,,
1250.443,-58.3,,,
1250.463,-57.99,,,
1250.483,-58.47,,,
1250.503,-59.13,,,
1250.523,-59.47,,,
1250.543,-58.61,,,
1250.563,-58.44,,,
1250.583,-58.25,,,
1250.603,-58.3,,,
1250.623,-58.76,,,
1250.643,-59.64,,,
1250.663,-59.05,,,
1250.683,-58.61,,,
1250.703,-58.73,,,
1250.723,-58.95,,,
1250.743,-60.47,,,
1250.763,-59.24,,,
1250.783,-58.24,,,
1250.803,-58.47,,,
1250.823,-58.82,,,
1250.843,-59.53,,,
1250.863,-59.2,,,
1250.883,-58.2,,,
1250.903,-58.35,,,
1250.923,-58.57,,,
1250.943,-59.99,,,
1250.963,-59.47,,,
1250.983,-58.43,,,
1251.003,-58.18,,,
1251.023,-58.34,,,
1251.043,-59.15,,,
1251.063,-59.51,,,
1251.083,-58.58,,,
1251.103,-57.92,,,
1251.123,-57.51,,,
1251.143,-57.8,,,
1251.163,-58.64,,,
1251.183,-58.95,,,
1251.203,-58.17,,,
1251.223,-57.69,,,
1251.243,-57.51,,,
1251.263,-57.88,,,
1251.283,-58.81,,,
1251.303,-57.92,,,
1251.323,-57.46,,,
1251.343,-57.68,,,
1251.363,-58.26,,,
1251.383,-59.09,,,
1251.403,-57.95,,,
1251.423,-57.49,,,
1251.443,-57.54,,,
1251.463,-58.11,,,
1251.483,-58.97,,,
1251.503,-58.32,,,
1251.523,-57.67,,,
1251.543,-57.67,,,
1251.563,-58.01,,,
1251.583,-59.05,,,
1251.603,-59.35,,,
1251.623,-58.58,,,
1251.643,-57.92,,,
1251.663,-58.05,,,
1251.683,-58.77,,,
1251.703,-59.04,,,
1251.723,-58.92,,,
1251.743,-57.9,,,
1251.763,-57.84,,,
1251.783,-58.16,,,
1251.803,-58.92,,,
1251.823,-59.09,,,
1251.843,-58.06,,,
1251.863,-57.97,,,
1251.883,-58.29,,,
1251.903,-59.15,,,
1251.923,-59.02,,,
1251.943,-58.13,,,
1251.963,-57.92,,,
1251.983,-57.77,,,
1252.003,-58.7,,,
1252.023,-59.55,,,
1252.043,-58.5,,,
1252.063,-58.01,,,
1252.083,-58.04,,,
1252.103,-58.86,,,
1252.123,-59.64,,,
1252.143,-59.66,,,
1252.163,-58.54,,,
1252.183,-58.07,,,
1252.203,-58.33,,,
1252.223,-59.46,,,
1252.243,-59.93,,,
1252.263,-58.32,,,
1252.283,-57.95,,,
1252.303,-58.52,,,
1252.323,-59.75,,,
1252.343,-59.52,,,
1252.363,-58.37,,,
1252.383,-57.91,,,
1252.403,-58.46,,,
1252.423,-60.03,,,
1252.443,-60.19,,,
1252.463,-58.84,,,
1252.483,-58.03,,,
1252.503,-58.33,,,
1252.523,-59.49,,,
1252.543,-60.25,,,
1252.563,-58.79,,,
1252.583,-58.02,,,
1252.603,-57.87,,,
1252.623,-58.74,,,
1252.643,-59.62,,,
1252.663,-58.43,,,
1252.683,-58.16,,,
1252.703,-57.52,,,
1252.723,-57.88,,,
1252.743,-58.96,,,
1252.763,-59.49,,,
1252.783,-59.03,,,
1252.803,-57.91,,,
1252.823,-58.02,,,
1252.843,-58.69,,,
1252.863,-59.9,,,
1252.883,-59.48,,,
1252.903,-58.49,,,
1252.923,-58.16,,,
1252.943,-58.34,,,
1252.963,-60,,,
1252.983,-60.15,,,
1253.003,-58.62,,,
1253.023,-58.14,,,
1253.043,-58.26,,,
1253.063,-59.6,,,
1253.083,-59.43,,,
1253.103,-58.72,,,
1253.123,-57.95,,,
1253.143,-57.99,,,
1253.163,-58.93,,,
1253.183,-59.66,,,
1253.203,-58.83,,,
1253.223,-57.85,,,
1253.243,-58.16,,,
1253.263,-58.74,,,
1253.283,-59.69,,,
1253.303,-58.61,,,
1253.323,-58.14,,,
1253.343,-58.14,,,
1253.363,-58.89,,,
1253.383,-59.68,,,
1253.403,-58.65,,,
1253.423,-57.98,,,
1253.443,-57.84,,,
1253.463,-58.68,,,
1253.483,-59.61,,,
1253.503,-59.14,,,
1253.523,-57.89,,,
1253.543,-57.55,,,
1253.563,-58.25,,,
1253.583,-59.6,,,
1253.603,-59.47,,,
1253.623,-58.13,,,
1253.643,-58.07,,,
1253.663,-58.52,,,
1253.683,-59.5,,,
1253.703,-59.52,,,
1253.723,-58.66,,,
1253.743,-58.12,,,
1253.763,-58.15,,,
1253.783,-58.41,,,
1253.803,-59.41,,,
1253.823,-59.83,,,
1253.843,-58.62,,,
1253.863,-58.15,,,
1253.883,-58,,,
1253.903,-58.95,,,
1253.923,-59.47,,,
1253.943,-58.71,,,
1253.963,-57.91,,,
1253.983,-57.97,,,
1254.003,-58.37,,,
1254.023,-59.59,,,
1254.043,-58.55,,,
1254.063,-57.9,,,
1254.083,-57.62,,,
1254.103,-58.11,,,
1254.123,-59.44,,,
1254.143,-58.92,,,
1254.163,-58.19,,,
1254.183,-57.83,,,
1254.203,-58.44,,,
1254.223,-59.29,,,
1254.243,-59.5,,,
1254.263,-58.46,,,
1254.283,-58.34,,,
1254.303,-58.61,,,
1254.323,-59.59,,,
1254.343,-59.41,,,
1254.363,-58.36,,,
1254.383,-58.17,,,
1254.403,-58.3,,,
1254.423,-59.49,,,
1254.443,-59.47,,,
1254.463,-58.44,,,
1254.483,-57.83,,,
1254.503,-57.96,,,
1254.523,-59.22,,,
1254.543,-59.98,,,
1254.563,-58.57,,,
1254.583,-57.87,,,
1254.603,-58.13,,,
1254.623,-58.96,,,
1254.643,-59.68,,,
1254.663,-58.81,,,
1254.683,-58.3,,,
1254.703,-58.37,,,
1254.723,-59.11,,,
1254.743,-59.59,,,
1254.763,-59.38,,,
1254.783,-58.65,,,
1254.803,-58.05,,,
1254.823,-57.74,,,
1254.843,-57.92,,,
1254.863,-59.2,,,
1254.883,-58.85,,,
1254.903,-58.1,,,
1254.923,-57.75,,,
1254.943,-58.15,,,
1254.963,-58.95,,,
1254.983,-59.28,,,
1255.003,-58.12,,,
1255.023,-57.84,,,
1255.043,-58.19,,,
1255.063,-59.29,,,
1255.083,-60.01,,,
1255.103,-58.29,,,
1255.123,-57.84,,,
1255.143,-58.22,,,
1255.163,-59.15,,,
1255.183,-59.34,,,
1255.203,-58.3,,,
1255.223,-57.72,,,
1255.243,-58.08,,,
1255.263,-58.7,,,
1255.283,-59.02,,,
1255.303,-58.38,,,
1255.323,-57.56,,,
1255.343,-57.74,,,
1255.363,-58.51,,,
1255.383,-59.55,,,
1255.403,-58.89,,,
1255.423,-58.04,,,
1255.443,-58.26,,,
1255.463,-58.81,,,
1255.483,-60.16,,,
1255.503,-59.76,,,
1255.523,-58.37,,,
1255.543,-58.4,,,
1255.563,-58.93,,,
1255.583,-60.16,,,
1255.603,-59.77,,,
1255.623,-58.56,,,
1255.643,-58.04,,,
1255.663,-58.43,,,
1255.683,-59.34,,,
1255.703,-59.67,,,
1255.723,-58.13,,,
1255.743,-57.92,,,
1255.763,-58.29,,,
1255.783,-58.82,,,
1255.803,-59.62,,,
1255.823,-59.45,,,
1255.843,-58.61,,,
1255.863,-58.19,,,
1255.883,-58.96,,,
1255.903,-59.71,,,
1255.923,-59.8,,,
1255.943,-58.77,,,
1255.963,-58.35,,,
1255.983,-59.14,,,
1256.003,-59.96,,,
1256.023,-59.88,,,
1256.043,-58.75,,,
1256.063,-58.34,,,
1256.083,-58.76,,,
1256.103,-59.83,,,
1256.123,-59.62,,,
1256.143,-58.52,,,
1256.163,-58.16,,,
1256.183,-58.62,,,
1256.203,-59.56,,,
1256.223,-59.66,,,
1256.243,-58.73,,,
1256.263,-58.18,,,
1256.283,-58.33,,,
1256.303,-58.94,,,
1256.323,-59.41,,,
1256.343,-59.06,,,
1256.363,-58.31,,,
1256.383,-58.1,,,
1256.403,-59.07,,,
1256.423,-59.13,,,
1256.443,-58.95,,,
1256.463,-57.93,,,
1256.483,-57.8,,,
1256.503,-58.35,,,
1256.523,-58.78,,,
1256.543,-58.4,,,
1256.563,-57.74,,,
1256.583,-57.64,,,
1256.603,-58.01,,,
1256.623,-58.39,,,
1256.643,-58.29,,,
1256.663,-57.87,,,
1256.683,-57.41,,,
1256.703,-57.9,,,
1256.723,-58.47,,,
1256.743,-58.26,,,
1256.763,-58.09,,,
1256.783,-57.65,,,
1256.803,-58.39,,,
1256.823,-58.63,,,
1256.843,-58.62,,,
1256.863,-57.97,,,
1256.883,-57.59,,,
1256.903,-57.43,,,
1256.923,-58.15,,,
1256.943,-58.6,,,
1256.963,-58.1,,,
1256.983,-57.23,,,
1257.003,-57.05,,,
1257.023,-58.04,,,
1257.043,-58.28,,,
1257.063,-57.93,,,
1257.083,-57.06,,,
1257.103,-56.94,,,
1257.123,-57.62,,,
1257.143,-58.42,,,
1257.163,-58.16,,,
1257.183,-57.38,,,
1257.203,-57.08,,,
1257.224,-57.58,,,
1257.243,-58.62,,,
1257.263,-58.2,,,
1257.283,-57.72,,,
1257.303,-57.43,,,
1257.323,-57.75,,,
1257.344,-58.34,,,
1257.364,-58.67,,,
1257.383,-57.67,,,
1257.403,-57.25,,,
1257.423,-57.16,,,
1257.443,-58.38,,,
1257.464,-58.48,,,
1257.484,-57.91,,,
1257.504,-57.08,,,
1257.523,-57.3,,,
1257.543,-58.11,,,
1257.563,-58.33,,,
1257.583,-57.65,,,
1257.604,-57.25,,,
1257.624,-57.41,,,
1257.644,-58.15,,,
1257.663,-58.77,,,
1257.683,-58.28,,,
1257.703,-57.49,,,
1257.724,-57.81,,,
1257.744,-58.49,,,
1257.764,-59.26,,,
1257.784,-58.07,,,
1257.803,-57.47,,,
1257.823,-57.38,,,
1257.844,-58.26,,,
1257.864,-58.95,,,
1257.884,-59.03,,,
1257.904,-58.27,,,
1257.924,-57.59,,,
1257.944,-57.97,,,
1257.964,-58.73,,,
1257.984,-59.13,,,
1258.004,-58.48,,,
1258.024,-57.91,,,
1258.044,-58.33,,,
1258.064,-59.24,,,
1258.084,-59.93,,,
1258.104,-59.43,,,
1258.124,-58.64,,,
1258.144,-58.66,,,
1258.164,-59.66,,,
1258.184,-59.76,,,
1258.204,-59.33,,,
1258.224,-58.63,,,
1258.244,-58.59,,,
1258.264,-59.29,,,
1258.284,-59.5,,,
1258.304,-59,,,
1258.324,-58.68,,,
1258.344,-58.5,,,
1258.364,-59.48,,,
1258.384,-59.72,,,
1258.404,-59.73,,,
1258.424,-58.85,,,
1258.444,-58.62,,,
1258.464,-59.37,,,
1258.484,-60.13,,,
1258.504,-59.99,,,
1258.524,-59.24,,,
1258.544,-58.86,,,
1258.564,-59.79,,,
1258.584,-60.39,,,
1258.604,-60.73,,,
1258.624,-59.45,,,
1258.644,-58.82,,,
1258.664,-59,,,
1258.684,-60.04,,,
1258.704,-59.73,,,
1258.724,-59.26,,,
1258.744,-58.16,,,
1258.764,-58.37,,,
1258.784,-59.24,,,
1258.804,-59.97,,,
1258.824,-59.01,,,
1258.844,-58.09,,,
1258.864,-58.29,,,
1258.884,-58.76,,,
1258.904,-59.75,,,
1258.924,-59.15,,,
1258.944,-58.52,,,
1258.964,-58.39,,,
1258.984,-59.12,,,
1259.004,-60.02,,,
1259.024,-58.97,,,
1259.044,-58.43,,,
1259.064,-58.16,,,
1259.084,-58.86,,,
1259.104,-59.45,,,
1259.124,-59.3,,,
1259.144,-57.97,,,
1259.164,-57.93,,,
1259.184,-58.72,,,
1259.204,-59.38,,,
1259.224,-59.32,,,
1259.244,-58.35,,,
1259.264,-58.15,,,
1259.284,-59.09,,,
1259.304,-59.89,,,
1259.324,-59.72,,,
1259.344,-58.44,,,
1259.364,-58.07,,,
1259.384,-58.94,,,
1259.404,-59.67,,,
1259.424,-59.64,,,
1259.444,-58.75,,,
1259.464,-58.28,,,
1259.484,-58.93,,,
1259.504,-59.45,,,
1259.524,-59.62,,,
1259.544,-58.73,,,
1259.564,-58.22,,,
1259.584,-58.3,,,
1259.604,-59.05,,,
1259.624,-59.33,,,
1259.644,-58.97,,,
1259.664,-58.27,,,
1259.684,-58.43,,,
1259.704,-59.06,,,
1259.724,-59.22,,,
1259.744,-59.1,,,
1259.764,-58.59,,,
1259.784,-58.24,,,
1259.804,-59.47,,,
1259.824,-59.61,,,
1259.844,-59.41,,,
1259.864,-58.67,,,
1259.884,-58.62,,,
1259.904,-59.25,,,
1259.924,-59.5,,,
1259.944,-59.28,,,
1259.964,-58.66,,,
1259.984,-58.37,,,
1260.004,-59.27,,,
1260.024,-59.36,,,
1260.044,-59.02,,,
1260.064,-58.47,,,
1260.084,-58.26,,,
1260.104,-58.64,,,
1260.124,-59.38,,,
1260.144,-59.52,,,
1260.164,-58.93,,,
1260.184,-58.81,,,
1260.204,-58.98,,,
1260.224,-59.61,,,
1260.244,-59.36,,,
1260.264,-58.88,,,
1260.284,-58.44,,,
1260.304,-58.79,,,
1260.324,-59.61,,,
1260.344,-59.38,,,
1260.364,-58.79,,,
1260.384,-58.17,,,
1260.404,-58.85,,,
1260.424,-59.24,,,
1260.444,-59,,,
1260.464,-58.16,,,
1260.484,-57.86,,,
1260.504,-58.3,,,
1260.524,-58.99,,,
1260.544,-58.92,,,
1260.564,-58.55,,,
1260.584,-57.96,,,
1260.604,-58.24,,,
1260.624,-58.8,,,
1260.644,-58.96,,,
1260.664,-58.54,,,
1260.684,-58.12,,,
1260.704,-58.28,,,
1260.724,-59.13,,,
1260.744,-59.36,,,
1260.764,-59.45,,,
1260.784,-58.12,,,
1260.804,-58.43,,,
1260.824,-59,,,
1260.844,-59.36,,,
1260.864,-58.74,,,
1260.884,-58.23,,,
1260.904,-58.01,,,
1260.924,-58.82,,,
1260.944,-59.35,,,
1260.964,-59.2,,,
1260.984,-58.22,,,
1261.004,-58.19,,,
1261.024,-58.98,,,
1261.044,-58.81,,,
1261.064,-59.03,,,
1261.084,-59.03,,,
1261.104,-59.17,,,
1261.124,-59.08,,,
1261.144,-59.1,,,
1261.164,-58.84,,,
1261.184,-58.76,,,
1261.204,-58.64,,,
1261.224,-58.82,,,
1261.244,-58.85,,,
1261.264,-58.95,,,
1261.284,-58.61,,,
1261.304,-58.54,,,
1261.324,-58.65,,,
1261.344,-58.76,,,
1261.364,-58.93,,,
1261.384,-58.72,,,
1261.404,-58.96,,,
1261.424,-59.08,,,
1261.444,-59.18,,,
1261.464,-59.26,,,
1261.484,-58.82,,,
1261.504,-58.72,,,
1261.524,-59.22,,,
1261.544,-59.06,,,
1261.564,-59.2,,,
1261.584,-58.93,,,
1261.604,-58.62,,,
1261.624,-58.86,,,
1261.644,-59.25,,,
1261.664,-59.24,,,
1261.684,-59.27,,,
1261.704,-58.9,,,
1261.724,-59.02,,,
1261.744,-59.14,,,
1261.764,-59.01,,,
1261.784,-59.13,,,
1261.804,-58.36,,,
1261.824,-59.03,,,
1261.844,-59.11,,,
1261.864,-58.96,,,
1261.884,-59.18,,,
1261.904,-58.85,,,
1261.924,-59.07,,,
1261.944,-59.2,,,
1261.964,-59.09,,,
1261.984,-59.03,,,
1262.004,-58.5,,,
1262.024,-59.5,,,
1262.044,-60.17,,,
1262.064,-59.77,,,
1262.084,-58.67,,,
1262.104,-58.18,,,
1262.124,-58.69,,,
1262.144,-59.59,,,
1262.164,-59.2,,,
1262.184,-58.59,,,
1262.204,-58.27,,,
1262.224,-58.85,,,
1262.244,-59.08,,,
1262.264,-59.16,,,
1262.284,-58.29,,,
1262.304,-58.07,,,
1262.324,-58.43,,,
1262.344,-59.25,,,
1262.364,-58.88,,,
1262.384,-58.24,,,
1262.404,-57.76,,,
1262.424,-57.89,,,
1262.444,-58.58,,,
1262.464,-58.84,,,
1262.484,-58.68,,,
1262.504,-57.73,,,
1262.524,-57.96,,,
1262.544,-58.64,,,
1262.564,-58.77,,,
1262.584,-58.65,,,
1262.604,-57.95,,,
1262.624,-57.99,,,
1262.644,-58.54,,,
1262.664,-58.76,,,
1262.684,-58.34,,,
1262.704,-57.91,,,
1262.724,-57.59,,,
1262.744,-58.4,,,
1262.764,-58.42,,,
1262.784,-58.59,,,
1262.804,-57.77,,,
1262.824,-57.74,,,
1262.844,-58.52,,,
1262.864,-58.93,,,
1262.884,-58.78,,,
1262.904,-58.05,,,
1262.924,-57.86,,,
1262.944,-58.27,,,
1262.964,-58.84,,,
1262.984,-58.54,,,
1263.004,-58.31,,,
1263.024,-58.39,,,
1263.044,-58.35,,,
1263.064,-58.27,,,
1263.084,-58.4,,,
1263.104,-58.82,,,
1263.124,-58.62,,,
1263.144,-58.84,,,
1263.164,-58.8,,,
1263.184,-58.83,,,
1263.204,-58.32,,,
1263.224,-58.39,,,
1263.244,-58.88,,,
1263.264,-59.04,,,
1263.284,-59.21,,,
1263.304,-58.82,,,
1263.324,-58.41,,,
1263.344,-59.21,,,
1263.364,-59.54,,,
1263.384,-59.04,,,
1263.404,-58.97,,,
1263.424,-58.5,,,
1263.444,-59.24,,,
1263.464,-58.7,,,
1263.484,-58.9,,,
1263.504,-58.84,,,
1263.524,-58.56,,,
1263.544,-59.02,,,
1263.564,-58.76,,,
1263.584,-58.93,,,
1263.604,-58.68,,,
1263.624,-58.76,,,
1263.644,-58.69,,,
1263.664,-59.07,,,
1263.684,-58.96,,,
1263.704,-58.93,,,
1263.724,-58.38,,,
1263.744,-58.87,,,
1263.764,-59.07,,,
1263.784,-59.02,,,
1263.804,-58.94,,,
1263.824,-58.44,,,
1263.844,-58.62,,,
1263.864,-58.86,,,
1263.884,-58.87,,,
1263.904,-58.96,,,
1263.924,-58.54,,,
1263.944,-58.13,,,
1263.964,-58.35,,,
1263.984,-58.37,,,
1264.004,-58.21,,,
1264.024,-58.19,,,
1264.044,-58.17,,,
1264.064,-58.27,,,
1264.084,-58.1,,,
1264.104,-57.83,,,
1264.124,-57.7,,,
1264.144,-57.79,,,
1264.164,-57.43,,,
1264.184,-57.99,,,
1264.204,-58.05,,,
1264.224,-58.13,,,
1264.244,-58.08,,,
1264.264,-57.52,,,
1264.284,-57.63,,,
1264.304,-57.93,,,
1264.324,-57.88,,,
1264.344,-57.45,,,
1264.364,-57.35,,,
1264.384,-57.41,,,
1264.404,-57.8,,,
1264.424,-57.7,,,
1264.444,-57.74,,,
1264.464,-57.7,,,
1264.484,-57.79,,,
1264.504,-57.98,,,
1264.524,-57.75,,,
1264.544,-57.73,,,
1264.564,-57.55,,,
1264.584,-57.97,,,
1264.604,-57.77,,,
1264.624,-57.61,,,
1264.644,-57.8,,,
1264.664,-57.63,,,
1264.684,-57.6,,,
1264.704,-57.82,,,
1264.724,-57.74,,,
1264.744,-57.83,,,
1264.764,-57.83,,,
1264.784,-57.78,,,
1264.804,-57.88,,,
1264.824,-57.91,,,
1264.844,-58.03,,,
1264.864,-57.97,,,
1264.884,-57.64,,,
1264.904,-57.79,,,
1264.924,-58.58,,,
1264.944,-58.18,,,
1264.964,-58.17,,,
1264.984,-58.17,,,
1265.004,-58.16,,,
1265.024,-58.23,,,
1265.044,-58.39,,,
1265.064,-58.29,,,
1265.084,-58.41,,,
1265.104,-58.44,,,
1265.124,-58.21,,,
1265.144,-58.72,,,
1265.164,-58.18,,,
1265.184,-58.22,,,
1265.204,-57.92,,,
1265.224,-57.75,,,
1265.245,-57.97,,,
1265.264,-58.2,,,
1265.284,-58.22,,,
1265.304,-57.93,,,
1265.324,-58.15,,,
1265.344,-58.25,,,
1265.365,-58.32,,,
1265.385,-58.39,,,
1265.404,-58.38,,,
1265.424,-58.24,,,
1265.444,-58.56,,,
1265.464,-58.8,,,
1265.484,-58.6,,,
1265.505,-58.37,,,
1265.525,-58.44,,,
1265.544,-58.69,,,
1265.564,-58.34,,,
1265.584,-58.4,,,
1265.604,-58.53,,,
1265.625,-58.39,,,
1265.645,-58.67,,,
1265.665,-58.45,,,
1265.685,-58.54,,,
1265.704,-58.74,,,
1265.724,-58.55,,,
1265.745,-58.6,,,
1265.765,-58.51,,,
1265.785,-58.72,,,
1265.805,-58.71,,,
1265.825,-58.41,,,
1265.844,-58.6,,,
1265.865,-58.72,,,
1265.885,-58.88,,,
1265.905,-58.51,,,
1265.925,-58.6,,,
1265.945,-58.78,,,
1265.965,-58.76,,,
1265.984,-58.66,,,
1266.005,-58.63,,,
1266.025,-58.71,,,
1266.045,-58.58,,,
1266.065,-58.41,,,
1266.085,-58.38,,,
1266.105,-58.4,,,
1266.125,-58.55,,,
1266.145,-58.22,,,
1266.165,-58.43,,,
1266.185,-58.67,,,
1266.205,-58.54,,,
1266.225,-58.66,,,
1266.245,-58.6,,,
1266.265,-58.56,,,
1266.285,-58.7,,,
1266.305,-59.01,,,
1266.325,-59.02,,,
1266.345,-59.1,,,
1266.365,-58.69,,,
1266.385,-58.98,,,
1266.405,-59.06,,,
1266.425,-59.38,,,
1266.445,-58.61,,,
1266.465,-58.52,,,
1266.485,-58.7,,,
1266.505,-58.6,,,
1266.525,-58.73,,,
1266.545,-58.93,,,
1266.565,-58.54,,,
1266.585,-58.94,,,
1266.605,-59.07,,,
1266.625,-58.9,,,
1266.645,-58.83,,,
1266.665,-58.82,,,
1266.685,-58.8,,,
1266.705,-59.92,,,
1266.725,-59.67,,,
1266.745,-58.65,,,
1266.765,-58.54,,,
1266.785,-59.19,,,
1266.805,-60.54,,,
1266.825,-59.76,,,
1266.845,-58.71,,,
1266.865,-59.02,,,
1266.885,-58.81,,,
1266.905,-58.9,,,
1266.925,-58.97,,,
1266.945,-58.84,,,
1266.965,-58.89,,,
1266.985,-59.19,,,
1267.005,-59.1,,,
1267.025,-59.38,,,
1267.045,-59.26,,,
1267.065,-59.52,,,
1267.085,-59.56,,,
1267.105,-59.25,,,
1267.125,-59.97,,,
1267.145,-60.07,,,
1267.165,-60.09,,,
1267.185,-60.95,,,
1267.205,-61.77,,,
1267.225,-60.66,,,
1267.245,-60.16,,,
1267.265,-60.74,,,
1267.285,-61.12,,,
1267.305,-61.54,,,
1267.325,-60.05,,,
1267.345,-60.02,,,
1267.365,-59.87,,,
1267.385,-61.1,,,
1267.405,-61.12,,,
1267.425,-60.14,,,
1267.445,-59.82,,,
1267.465,-59.8,,,
1267.485,-61.07,,,
1267.505,-61.47,,,
1267.525,-60.23,,,
1267.545,-60.3,,,
1267.565,-60.21,,,
1267.585,-60.94,,,
1267.605,-61.92,,,
1267.625,-61.48,,,
1267.645,-60.65,,,
1267.665,-62.08,,,
1267.685,-62.84,,,
1267.705,-61.04,,,
1267.725,-60.52,,,
1267.745,-60.21,,,
1267.765,-61.46,,,
1267.785,-61.31,,,
1267.805,-60.37,,,
1267.825,-59.68,,,
1267.845,-59.78,,,
1267.865,-60.98,,,
1267.885,-62.33,,,
1267.905,-60.94,,,
1267.925,-59.9,,,
1267.945,-60.01,,,
1267.965,-60.61,,,
1267.985,-61.66,,,
1268.005,-60.94,,,
1268.025,-60.08,,,
1268.045,-59.7,,,
1268.065,-60.44,,,
1268.085,-61.03,,,
1268.105,-61.25,,,
1268.125,-60.4,,,
1268.145,-60.18,,,
1268.165,-60.07,,,
1268.185,-60.07,,,
1268.205,-59.1,,,
1268.225,-58.71,,,
1268.245,-59.11,,,
1268.265,-59.95,,,
1268.285,-59.65,,,
1268.305,-58.82,,,
1268.325,-58.58,,,
1268.345,-59.21,,,
1268.365,-60.49,,,
1268.385,-60.04,,,
1268.405,-59.19,,,
1268.425,-58.72,,,
1268.445,-59.25,,,
1268.465,-59.59,,,
1268.485,-60.39,,,
1268.505,-59.53,,,
1268.525,-58.86,,,
1268.545,-59.03,,,
1268.565,-59.67,,,
1268.585,-60,,,
1268.605,-59.02,,,
1268.625,-58.62,,,
1268.645,-58.86,,,
1268.665,-59.38,,,
1268.685,-58.58,,,
1268.705,-58.39,,,
1268.725,-58.69,,,
1268.745,-58.98,,,
1268.765,-59.46,,,
1268.785,-58.89,,,
1268.805,-58.58,,,
1268.825,-58.64,,,
1268.845,-59.01,,,
1268.865,-59.28,,,
1268.885,-58.86,,,
1268.905,-58.56,,,
1268.925,-58.85,,,
1268.945,-59.08,,,
1268.965,-59.75,,,
1268.985,-59.43,,,
1269.005,-58.97,,,
1269.025,-58.56,,,
1269.045,-58.68,,,
1269.065,-59.4,,,
1269.085,-59.29,,,
1269.105,-58.44,,,
1269.125,-58.03,,,
1269.145,-58.68,,,
1269.165,-58.82,,,
1269.185,-58.47,,,
1269.205,-58.63,,,
1269.225,-58.91,,,
1269.245,-59.37,,,
1269.265,-59.2,,,
1269.285,-58.76,,,
1269.305,-58.62,,,
1269.325,-59.12,,,
1269.345,-59.23,,,
1269.365,-58.95,,,
1269.385,-58.73,,,
1269.405,-58.4,,,
1269.425,-58.55,,,
1269.445,-59.58,,,
1269.465,-58.82,,,
1269.485,-58.46,,,
1269.505,-58.17,,,
1269.525,-58.35,,,
1269.545,-59.01,,,
1269.565,-59.07,,,
1269.585,-58.62,,,
1269.605,-58.3,,,
1269.625,-58.88,,,
1269.645,-58.82,,,
1269.665,-58.79,,,
1269.685,-58.24,,,
1269.705,-58.58,,,
1269.725,-59.48,,,
1269.745,-59.49,,,
1269.765,-58.92,,,
1269.785,-58.39,,,
1269.805,-58.71,,,
1269.825,-59.51,,,
1269.845,-59.22,,,
1269.865,-58.84,,,
1269.885,-58.41,,,
1269.905,-58.02,,,
1269.925,-59.08,,,
1269.945,-59.37,,,
1269.965,-58.82,,,
1269.985,-57.91,,,
1270.005,-58.01,,,
1270.025,-58.38,,,
1270.045,-59.5,,,
1270.065,-58.81,,,
1270.085,-58.18,,,
1270.105,-58.14,,,
1270.125,-58.95,,,
1270.145,-58.97,,,
1270.165,-58.28,,,
1270.185,-58.11,,,
1270.205,-58.63,,,
1270.225,-59.55,,,
1270.245,-58.96,,,
1270.265,-58.4,,,
1270.285,-58.08,,,
1270.305,-58.36,,,
1270.325,-58.92,,,
1270.345,-59.03,,,
1270.365,-57.99,,,
1270.385,-57.85,,,
1270.405,-58.14,,,
1270.425,-58.79,,,
1270.445,-58.72,,,
1270.465,-58.34,,,
1270.485,-58.18,,,
1270.505,-58.32,,,
1270.525,-59.28,,,
1270.545,-59.21,,,
1270.565,-58.5,,,
1270.585,-58.37,,,
1270.605,-58.69,,,
1270.625,-58.78,,,
1270.645,-58.45,,,
1270.665,-58.07,,,
1270.685,-57.94,,,
1270.705,-58.22,,,
1270.725,-58.36,,,
1270.745,-57.79,,,
1270.765,-57.74,,,
1270.785,-57.88,,,
1270.805,-58.15,,,
1270.825,-58.47,,,
1270.845,-58.06,,,
1270.865,-57.87,,,
1270.885,-58.03,,,
1270.905,-58.26,,,
1270.925,-58.71,,,
1270.945,-58.11,,,
1270.965,-57.83,,,
1270.985,-57.82,,,
1271.005,-58.35,,,
1271.025,-58.48,,,
1271.045,-58.54,,,
1271.065,-58.01,,,
1271.085,-58.06,,,
1271.105,-58.57,,,
1271.125,-58.34,,,
1271.145,-57.95,,,
1271.165,-58.04,,,
1271.185,-58.21,,,
1271.205,-58.22,,,
1271.225,-58.1,,,
1271.245,-57.65,,,
1271.265,-57.61,,,
1271.285,-57.89,,,
1271.305,-58.15,,,
1271.325,-58.1,,,
1271.345,-58,,,
1271.365,-57.86,,,
1271.385,-58.19,,,
1271.405,-58.24,,,
1271.425,-58.6,,,
1271.445,-58.09,,,
1271.465,-57.73,,,
1271.485,-58.06,,,
1271.505,-58.14,,,
1271.525,-58.17,,,
1271.545,-57.92,,,
1271.565,-57.6,,,
1271.585,-57.99,,,
1271.605,-58.5,,,
1271.625,-58.09,,,
1271.645,-57.73,,,
1271.665,-58.09,,,
1271.685,-58.56,,,
1271.705,-58.71,,,
1271.725,-58.27,,,
1271.745,-58.02,,,
1271.765,-58.12,,,
1271.785,-58.19,,,
1271.805,-58.53,,,
1271.825,-58.55,,,
1271.845,-57.97,,,
1271.865,-58.01,,,
1271.885,-58.47,,,
1271.905,-58.59,,,
1271.925,-57.63,,,
1271.945,-57.5,,,
1271.965,-57.53,,,
1271.985,-58.74,,,
1272.005,-58.82,,,
1272.025,-57.75,,,
1272.045,-57.32,,,
1272.065,-57.5,,,
1272.085,-58.03,,,
1272.105,-57.82,,,
1272.125,-57.53,,,
1272.145,-57.3,,,
1272.165,-57.89,,,
1272.185,-58.24,,,
1272.205,-58.14,,,
1272.225,-57.63,,,
1272.245,-57.63,,,
1272.265,-58.46,,,
1272.285,-59.26,,,
1272.305,-58.45,,,
1272.325,-57.6,,,
1272.345,-57.85,,,
1272.365,-58.41,,,
1272.385,-59.22,,,
1272.405,-58.25,,,
1272.425,-57.57,,,
1272.445,-57.57,,,
1272.465,-58.22,,,
1272.485,-58.97,,,
1272.505,-58.41,,,
1272.525,-57.58,,,
1272.545,-57.66,,,
1272.565,-58.22,,,
1272.585,-57.96,,,
1272.605,-57.26,,,
1272.625,-57.37,,,
1272.645,-57.87,,,
1272.665,-58.84,,,
1272.685,-58.26,,,
1272.705,-57.55,,,
1272.725,-57.49,,,
1272.745,-57.93,,,
1272.765,-59.02,,,
1272.785,-58.41,,,
1272.805,-57.58,,,
1272.825,-57.3,,,
1272.845,-57.89,,,
1272.865,-58.84,,,
1272.885,-58.01,,,
1272.905,-57.9,,,
1272.925,-58.22,,,
1272.945,-59.7,,,
1272.965,-58.94,,,
1272.985,-57.97,,,
1273.005,-57.82,,,
1273.025,-58.01,,,
1273.045,-59.12,,,
1273.065,-59.15,,,
1273.085,-58.01,,,
1273.105,-57.89,,,
1273.125,-58.58,,,
1273.145,-59.61,,,
1273.165,-59.75,,,
1273.185,-58.34,,,
1273.205,-58.1,,,
1273.225,-58.6,,,
1273.245,-58.81,,,
1273.266,-57.82,,,
1273.286,-57.42,,,
1273.305,-57.85,,,
1273.325,-58.63,,,
1273.345,-58.64,,,
1273.365,-57.68,,,
1273.385,-57.4,,,
1273.406,-57.6,,,
1273.426,-58.61,,,
1273.445,-58.85,,,
1273.465,-58.05,,,
1273.485,-57.41,,,
1273.505,-57.8,,,
1273.526,-58.85,,,
1273.546,-58.9,,,
1273.566,-58.09,,,
1273.585,-58.33,,,
1273.605,-59.09,,,
1273.625,-59.85,,,
1273.646,-58.47,,,
1273.666,-57.78,,,
1273.686,-57.86,,,
1273.706,-58.57,,,
1273.725,-59.38,,,
1273.745,-58.31,,,
1273.766,-57.81,,,
1273.786,-57.81,,,
1273.806,-58.83,,,
1273.826,-59.53,,,
1273.846,-58.53,,,
1273.865,-57.88,,,
1273.885,-58.02,,,
1273.906,-59.04,,,
1273.926,-58.02,,,
1273.946,-57.23,,,
1273.966,-57.42,,,
1273.986,-57.79,,,
1274.005,-58.96,,,
1274.026,-58.09,,,
1274.046,-57.29,,,
1274.066,-57.49,,,
1274.086,-58.09,,,
1274.106,-58.78,,,
1274.126,-58.29,,,
1274.146,-57.39,,,
1274.166,-57.25,,,
1274.186,-57.61,,,
1274.206,-58.35,,,
1274.226,-57.38,,,
1274.246,-57.5,,,
1274.266,-57.93,,,
1274.286,-58.75,,,
1274.306,-58.14,,,
1274.326,-57.42,,,
1274.346,-57.56,,,
1274.366,-58.06,,,
1274.386,-59.19,,,
1274.406,-58.33,,,
1274.426,-57.74,,,
1274.446,-57.4,,,
1274.466,-58.12,,,
1274.486,-58.89,,,
1274.506,-58.48,,,
1274.526,-57.34,,,
1274.546,-57.49,,,
1274.566,-58.52,,,
1274.586,-58.17,,,
1274.606,-57.02,,,
1274.626,-57.04,,,
1274.646,-57.27,,,
1274.666,-58.18,,,
1274.686,-58.41,,,
1274.706,-57.51,,,
1274.726,-57.33,,,
1274.746,-57.7,,,
1274.766,-58.72,,,
1274.786,-58.57,,,
1274.806,-57.6,,,
1274.826,-57.23,,,
1274.846,-57.69,,,
1274.866,-58.62,,,
1274.886,-57.55,,,
1274.906,-57.23,,,
1274.926,-57.9,,,
1274.946,-58.81,,,
1274.966,-59.07,,,
1274.986,-57.76,,,
1275.006,-57.51,,,
1275.026,-57.77,,,
1275.046,-58.69,,,
1275.066,-58.84,,,
1275.086,-58.01,,,
1275.106,-57.35,,,
1275.126,-57.53,,,
1275.146,-58.35,,,
1275.166,-59.06,,,
1275.186,-57.86,,,
1275.206,-57.77,,,
1275.226,-59,,,
1275.246,-59.12,,,
1275.266,-58.34,,,
1275.286,-57.7,,,
1275.306,-58.07,,,
1275.326,-59.11,,,
1275.346,-59.68,,,
1275.366,-58.24,,,
1275.386,-57.79,,,
1275.406,-57.69,,,
1275.426,-58.64,,,
1275.446,-59.38,,,
1275.466,-58.26,,,
1275.486,-57.68,,,
1275.506,-57.78,,,
1275.526,-59.04,,,
1275.546,-58.09,,,
1275.566,-57.48,,,
1275.586,-57.98,,,
1275.606,-58.73,,,
1275.626,-59.22,,,
1275.646,-58.52,,,
1275.666,-57.74,,,
1275.686,-57.78,,,
1275.706,-58.5,,,
1275.726,-59.22,,,
1275.746,-57.97,,,
1275.766,-57.55,,,
1275.786,-57.74,,,
1275.806,-58.2,,,
1275.826,-58.73,,,
1275.846,-57.94,,,
1275.866,-57.83,,,
1275.886,-58.56,,,
1275.906,-59.1,,,
1275.926,-58.26,,,
1275.946,-57.57,,,
1275.966,-57.51,,,
1275.986,-57.93,,,
1276.006,-59.08,,,
1276.026,-58.42,,,
1276.046,-57.63,,,
1276.066,-57.43,,,
1276.086,-58.09,,,
1276.106,-58.97,,,
1276.126,-58.82,,,
1276.146,-57.96,,,
1276.166,-57.76,,,
1276.186,-58.67,,,
1276.206,-58.04,,,
1276.226,-57.41,,,
1276.246,-57.01,,,
1276.266,-57.53,,,
1276.286,-58.43,,,
1276.306,-58.18,,,
1276.326,-57.09,,,
1276.346,-56.97,,,
1276.366,-57.52,,,
1276.386,-58.52,,,
1276.406,-58.45,,,
1276.426,-57.23,,,
1276.446,-57.25,,,
1276.466,-57.56,,,
1276.486,-58.58,,,
1276.506,-58.08,,,
1276.526,-57.8,,,
1276.546,-58.3,,,
1276.566,-59.35,,,
1276.586,-59.13,,,
1276.606,-58.11,,,
1276.626,-57.91,,,
1276.646,-58.37,,,
1276.666,-59.51,,,
1276.686,-59.63,,,
1276.706,-57.98,,,
1276.726,-57.91,,,
1276.746,-58.5,,,
1276.766,-58.87,,,
1276.786,-58.52,,,
1276.806,-57.74,,,
1276.826,-57.99,,,
1276.846,-58.82,,,
1276.866,-58.84,,,
1276.886,-57.85,,,
1276.906,-57.53,,,
1276.926,-57.7,,,
1276.946,-58.66,,,
1276.966,-59.69,,,
1276.986,-58.35,,,
1277.006,-57.7,,,
1277.026,-58.81,,,
1277.046,-59.16,,,
1277.066,-59.06,,,
1277.086,-58.4,,,
1277.106,-58.3,,,
1277.126,-58.9,,,
1277.146,-59.04,,,
1277.166,-58.54,,,
1277.186,-58.04,,,
1277.206,-58.17,,,
1277.226,-59.79,,,
1277.246,-60.66,,,
1277.266,-59.5,,,
1277.286,-58.54,,,
1277.306,-59.24,,,
1277.326,-60.47,,,
1277.346,-60.4,,,
1277.366,-59.32,,,
1277.386,-58.62,,,
1277.406,-59.29,,,
1277.426,-60.71,,,
1277.446,-60.88,,,
1277.466,-59.6,,,
1277.486,-59.03,,,
1277.506,-59.57,,,
1277.526,-59.5,,,
1277.546,-58.65,,,
1277.566,-57.71,,,
1277.586,-58.25,,,
1277.606,-59.28,,,
1277.626,-59.26,,,
1277.646,-58.45,,,
1277.666,-57.66,,,
1277.686,-58.03,,,
1277.706,-59.32,,,
1277.726,-59.22,,,
1277.746,-58.42,,,
1277.766,-58.22,,,
1277.786,-59.66,,,
1277.806,-59.48,,,
1277.826,-58.54,,,
1277.846,-57.9,,,
1277.866,-58.33,,,
1277.886,-59.6,,,
1277.906,-59.7,,,
1277.926,-58.99,,,
1277.946,-58.03,,,
1277.966,-58.34,,,
1277.986,-59.98,,,
1278.006,-59.02,,,
1278.026,-58.02,,,
1278.046,-58.44,,,
1278.066,-59.41,,,
1278.086,-59.43,,,
1278.106,-58.49,,,
1278.126,-58.06,,,
1278.146,-58.22,,,
1278.166,-59.46,,,
1278.186,-59.89,,,
1278.206,-58.9,,,
1278.226,-58.32,,,
1278.246,-58.57,,,
1278.266,-59.11,,,
1278.286,-58.61,,,
1278.306,-57.97,,,
1278.326,-58.05,,,
1278.346,-58.76,,,
1278.366,-58.79,,,
1278.386,-58.45,,,
1278.406,-57.86,,,
1278.426,-57.74,,,
1278.446,-58.46,,,
1278.466,-58.89,,,
1278.486,-58.17,,,
1278.506,-57.88,,,
1278.526,-58.99,,,
1278.546,-59.37,,,
1278.566,-59.04,,,
1278.586,-58.22,,,
1278.606,-58.11,,,
1278.626,-59.24,,,
1278.646,-59.9,,,
1278.666,-59.57,,,
1278.686,-58.74,,,
1278.706,-58.54,,,
1278.726,-59.2,,,
1278.746,-60.22,,,
1278.766,-59.02,,,
1278.786,-58.93,,,
1278.806,-59.9,,,
1278.826,-60.13,,,
1278.846,-60.04,,,
1278.866,-58.79,,,
1278.886,-58.54,,,
1278.906,-59.45,,,
1278.926,-59.93,,,
1278.946,-59.51,,,
1278.966,-58.56,,,
1278.986,-58.14,,,
1279.006,-59.31,,,
1279.026,-58.95,,,
1279.046,-58.17,,,
1279.066,-57.9,,,
1279.086,-58.61,,,
1279.106,-59.42,,,
1279.126,-59.17,,,
1279.146,-58.02,,,
1279.166,-57.85,,,
1279.186,-58.7,,,
1279.206,-59.32,,,
1279.226,-58.83,,,
1279.246,-58.05,,,
1279.266,-59.02,,,
1279.286,-59.44,,,
1279.306,-59.34,,,
1279.326,-58.42,,,
1279.346,-58.04,,,
1279.366,-59,,,
1279.386,-59.55,,,
1279.406,-59.58,,,
1279.426,-58.63,,,
1279.446,-58.06,,,
1279.466,-58.41,,,
1279.486,-59.78,,,
1279.506,-58.47,,,
1279.526,-57.82,,,
1279.546,-58.44,,,
1279.566,-59.22,,,
1279.586,-59.22,,,
1279.606,-58.38,,,
1279.626,-57.81,,,
1279.646,-58.33,,,
1279.666,-58.82,,,
1279.686,-58.66,,,
1279.706,-58.03,,,
1279.726,-57.52,,,
1279.746,-58.15,,,
1279.766,-58.01,,,
1279.786,-57.15,,,
1279.806,-57.23,,,
1279.826,-57.71,,,
1279.846,-58.5,,,
1279.866,-58.48,,,
1279.886,-57.81,,,
1279.906,-57.42,,,
1279.926,-57.82,,,
1279.946,-58.6,,,
1279.966,-58.64,,,
1279.986,-57.84,,,
1280.006,-58.37,,,
1280.026,-59.36,,,
1280.046,-59.57,,,
1280.066,-58.99,,,
1280.086,-57.82,,,
1280.106,-58.24,,,
1280.126,-59.05,,,
1280.146,-59.7,,,
1280.166,-58.71,,,
1280.186,-57.9,,,
1280.206,-57.85,,,
1280.226,-58.92,,,
1280.246,-58.73,,,
1280.266,-57.73,,,
1280.286,-58.04,,,
1280.306,-58.61,,,
1280.326,-59.27,,,
1280.346,-58.54,,,
1280.366,-57.94,,,
1280.386,-58.17,,,
1280.406,-59.05,,,
1280.426,-59.36,,,
1280.446,-58.67,,,
1280.466,-57.93,,,
1280.486,-58.18,,,
1280.506,-58.9,,,
1280.526,-58.31,,,
1280.546,-57.58,,,
1280.566,-57.68,,,
1280.586,-58.42,,,
1280.606,-58.77,,,
1280.626,-57.89,,,
1280.646,-57.3,,,
1280.666,-57.6,,,
1280.686,-58.31,,,
1280.706,-58.83,,,
1280.726,-57.82,,,
1280.746,-58.23,,,
1280.766,-59.3,,,
1280.786,-59.65,,,
1280.806,-58.93,,,
1280.826,-58.07,,,
1280.846,-57.9,,,
1280.866,-58.59,,,
1280.886,-59.34,,,
1280.906,-58.88,,,
1280.926,-57.98,,,
1280.946,-57.96,,,
1280.966,-59.15,,,
1280.986,-59.24,,,
1281.006,-57.88,,,
1281.026,-57.9,,,
1281.046,-58.52,,,
1281.066,-59.59,,,
1281.086,-58.94,,,
1281.106,-58.25,,,
1281.126,-58.04,,,
1281.146,-58.58,,,
1281.167,-59.17,,,
1281.186,-58.89,,,
1281.206,-58.44,,,
1281.226,-58.06,,,
1281.246,-59.03,,,
1281.266,-58.78,,,
1281.286,-58.3,,,
1281.307,-57.76,,,
1281.326,-58.5,,,
1281.346,-59.33,,,
1281.366,-58.74,,,
1281.386,-57.91,,,
1281.406,-57.36,,,
1281.427,-58.15,,,
1281.447,-58.58,,,
1281.466,-58.23,,,
1281.486,-57.56,,,
1281.506,-58.37,,,
1281.526,-59.12,,,
1281.547,-58.86,,,
1281.567,-58.34,,,
1281.587,-57.91,,,
1281.606,-58.47,,,
1281.626,-60.02,,,
1281.646,-59.4,,,
1281.667,-58.65,,,
1281.687,-58.23,,,
1281.707,-59.68,,,
1281.727,-59.05,,,
1281.746,-58.21,,,
1281.766,-57.84,,,
1281.786,-58.41,,,
1281.807,-59.02,,,
1281.827,-59.19,,,
1281.847,-58.49,,,
1281.867,-57.82,,,
1281.887,-58.16,,,
1281.906,-58.2,,,
1281.927,-58.29,,,
1281.947,-57.92,,,
1281.967,-57.85,,,
1281.987,-58.62,,,
1282.007,-58.74,,,
1282.027,-57.91,,,
1282.047,-57.4,,,
1282.067,-57.66,,,
1282.087,-58.6,,,
1282.107,-58.14,,,
1282.127,-57.9,,,
1282.147,-58,,,
1282.167,-58.28,,,
1282.187,-58.43,,,
1282.207,-58.44,,,
1282.227,-57.71,,,
1282.247,-58.1,,,
1282.267,-58.53,,,
1282.287,-58.78,,,
1282.307,-58.37,,,
1282.327,-57.97,,,
1282.347,-58.55,,,
1282.367,-58.46,,,
1282.387,-58.73,,,
1282.407,-58.47,,,
1282.427,-58.56,,,
1282.447,-58.63,,,
1282.467,-59.28,,,
1282.487,-58.88,,,
1282.507,-58.78,,,
1282.527,-59.42,,,
1282.547,-59.31,,,
1282.567,-59.31,,,
1282.587,-59.59,,,
1282.607,-59,,,
1282.627,-59.27,,,
1282.647,-59.09,,,
1282.667,-59.03,,,
1282.687,-58.14,,,
1282.707,-58.78,,,
1282.727,-58.61,,,
1282.747,-58.72,,,
1282.767,-58.49,,,
1282.787,-58.55,,,
1282.807,-58.89,,,
1282.827,-58.83,,,
1282.847,-58.72,,,
1282.867,-58.07,,,
1282.887,-59.23,,,
1282.907,-59.54,,,
1282.927,-59.3,,,
1282.947,-59,,,
1282.967,-58.87,,,
1282.987,-59.34,,,
1283.007,-59.64,,,
1283.027,-59.65,,,
1283.047,-59.37,,,
1283.067,-58.67,,,
1283.087,-58.88,,,
1283.107,-58.67,,,
1283.127,-58.34,,,
1283.147,-58.15,,,
1283.167,-58.77,,,
1283.187,-58.59,,,
1283.207,-58.71,,,
1283.227,-58.44,,,
1283.247,-58.44,,,
1283.267,-58.85,,,
1283.287,-58.46,,,
1283.307,-58.22,,,
1283.327,-58.23,,,
1283.347,-58.47,,,
1283.367,-58.43,,,
1283.387,-58.41,,,
1283.407,-57.96,,,
1283.427,-57.91,,,
1283.447,-58.31,,,
1283.467,-58.86,,,
1283.487,-57.99,,,
1283.507,-57.97,,,
1283.527,-58.17,,,
1283.547,-58.19,,,
1283.567,-57.97,,,
1283.587,-57.74,,,
1283.607,-57.39,,,
1283.627,-57.86,,,
1283.647,-58.15,,,
1283.667,-58.29,,,
1283.687,-58.29,,,
1283.707,-58.63,,,
1283.727,-58.64,,,
1283.747,-58.79,,,
1283.767,-58.55,,,
1283.787,-58.2,,,
1283.807,-58.41,,,
1283.827,-58.31,,,
1283.847,-59.03,,,
1283.867,-58.21,,,
1283.887,-58.5,,,
1283.907,-58.25,,,
1283.927,-58.14,,,
1283.947,-58.48,,,
1283.967,-58.53,,,
1283.987,-58.37,,,
1284.007,-57.96,,,
1284.027,-57.9,,,
1284.047,-57.88,,,
1284.067,-58.02,,,
1284.087,-58.1,,,
1284.107,-58.18,,,
1284.127,-58.38,,,
1284.147,-58.18,,,
1284.167,-58.33,,,
1284.187,-58.23,,,
1284.207,-58.3,,,
1284.227,-58.53,,,
1284.247,-58.08,,,
1284.267,-58.72,,,
1284.287,-58.68,,,
1284.307,-58.54,,,
1284.327,-58.35,,,
1284.347,-58.66,,,
1284.367,-58.48,,,
1284.387,-58.18,,,
1284.407,-58.49,,,
1284.427,-58.55,,,
1284.447,-58.47,,,
1284.467,-59.14,,,
1284.487,-58.35,,,
1284.507,-58.4,,,
1284.527,-58.5,,,
1284.547,-58.69,,,
1284.567,-58.64,,,
1284.587,-58.72,,,
1284.607,-58.29,,,
1284.627,-58.58,,,
1284.647,-59.33,,,
1284.667,-58.65,,,
1284.687,-58.38,,,
1284.707,-58.69,,,
1284.727,-58.8,,,
1284.747,-58.56,,,
1284.767,-58.48,,,
1284.787,-58.41,,,
1284.807,-58.63,,,
1284.827,-58.47,,,
1284.847,-58.58,,,
1284.867,-57.73,,,
1284.887,-58.28,,,
1284.907,-58.51,,,
1284.927,-58.47,,,
1284.947,-57.82,,,
1284.967,-57.74,,,
1284.987,-57.96,,,
1285.007,-58.12,,,
1285.027,-58.23,,,
1285.047,-57.59,,,
1285.067,-57.86,,,
1285.087,-58.26,,,
1285.107,-58.23,,,
1285.127,-57.9,,,
1285.147,-57.77,,,
1285.167,-57.97,,,
1285.187,-58.29,,,
1285.207,-57.91,,,
1285.227,-57.69,,,
1285.247,-57.34,,,
1285.267,-57.95,,,
1285.287,-57.78,,,
1285.307,-57.56,,,
1285.327,-57.29,,,
1285.347,-57.57,,,
1285.367,-57.85,,,
1285.387,-57.94,,,
1285.407,-57.75,,,
1285.427,-57.5,,,
1285.447,-57.58,,,
1285.467,-57.95,,,
1285.487,-57.59,,,
1285.507,-57.36,,,
1285.527,-57.64,,,
1285.547,-57.53,,,
1285.567,-57.56,,,
1285.587,-57.73,,,
1285.607,-57.68,,,
1285.627,-57.77,,,
1285.647,-57.76,,,
1285.667,-57.66,,,
1285.687,-57.41,,,
1285.707,-57.56,,,
1285.727,-57.51,,,
1285.747,-57.7,,,
1285.767,-57.54,,,
1285.787,-57.42,,,
1285.807,-57.54,,,
1285.827,-57.76,,,
1285.847,-58.05,,,
1285.867,-57.32,,,
1285.887,-57.86,,,
1285.907,-58.05,,,
1285.927,-58.13,,,
1285.947,-58,,,
1285.967,-57.67,,,
1285.987,-57.96,,,
1286.007,-58.14,,,
1286.027,-58.33,,,
1286.047,-58.04,,,
1286.067,-58.14,,,
1286.087,-58.44,,,
1286.107,-58.44,,,
1286.127,-58.41,,,
1286.147,-58.01,,,
1286.167,-58.09,,,
1286.187,-58.49,,,
1286.207,-58.66,,,
1286.227,-58.41,,,
1286.247,-58.12,,,
1286.267,-58.16,,,
1286.287,-58.41,,,
1286.307,-58.51,,,
1286.327,-58.28,,,
1286.347,-58.53,,,
1286.367,-58.68,,,
1286.387,-58.52,,,
1286.407,-58.56,,,
1286.427,-58.45,,,
1286.447,-58.71,,,
1286.467,-58.35,,,
1286.487,-58.25,,,
1286.507,-58.2,,,
1286.527,-58.54,,,
1286.547,-58.43,,,
1286.567,-58.67,,,
1286.587,-58.63,,,
1286.607,-58.15,,,
1286.627,-58.61,,,
1286.647,-58.15,,,
1286.667,-58.58,,,
1286.687,-58.32,,,
1286.707,-58.52,,,
1286.727,-58.28,,,
1286.747,-58.38,,,
1286.767,-58.67,,,
1286.787,-58.77,,,
1286.807,-58.07,,,
1286.827,-57.6,,,
1286.847,-58.36,,,
1286.867,-58.35,,,
1286.887,-58.38,,,
1286.907,-58.16,,,
1286.927,-58,,,
1286.947,-58.4,,,
1286.967,-58.63,,,
1286.987,-57.91,,,
1287.007,-57.67,,,
1287.027,-58.28,,,
1287.047,-58.7,,,
1287.067,-58.5,,,
1287.087,-58.35,,,
1287.107,-58.16,,,
1287.127,-58.59,,,
1287.147,-58.89,,,
1287.167,-57.92,,,
1287.187,-57.68,,,
1287.207,-58.22,,,
1287.227,-58.47,,,
1287.247,-58.81,,,
1287.267,-58.34,,,
1287.287,-58.3,,,
1287.307,-59.22,,,
1287.327,-58.75,,,
1287.347,-57.91,,,
1287.367,-57.8,,,
1287.387,-58.34,,,
1287.407,-59.37,,,
1287.427,-58.45,,,
1287.447,-58.23,,,
1287.467,-58.39,,,
1287.487,-59.34,,,
1287.507,-58.63,,,
1287.527,-58.22,,,
1287.547,-57.86,,,
1287.567,-58.12,,,
1287.587,-59.1,,,
1287.607,-58.41,,,
1287.627,-58.41,,,
1287.647,-58.71,,,
1287.667,-59.28,,,
1287.687,-58.93,,,
1287.707,-58.34,,,
1287.727,-58.43,,,
1287.747,-58.69,,,
1287.767,-58.71,,,
1287.787,-58.76,,,
1287.807,-58.66,,,
1287.827,-59.21,,,
1287.847,-59.89,,,
1287.867,-59.01,,,
1287.887,-58.51,,,
1287.907,-58.57,,,
1287.927,-59.11,,,
1287.947,-59.23,,,
1287.967,-58.38,,,
1287.987,-59.05,,,
1288.007,-59.61,,,
1288.027,-59.95,,,
1288.047,-59.01,,,
1288.067,-58.34,,,
1288.087,-58.67,,,
1288.107,-59.41,,,
1288.127,-59.63,,,
1288.147,-58.52,,,
1288.167,-58.67,,,
1288.187,-59.46,,,
1288.207,-59.91,,,
1288.227,-58.78,,,
1288.247,-58.35,,,
1288.267,-59.04,,,
1288.287,-58.95,,,
1288.307,-58.5,,,
1288.327,-58.01,,,
1288.347,-58.05,,,
1288.367,-58.76,,,
1288.387,-58.94,,,
1288.407,-58.61,,,
1288.427,-57.87,,,
1288.447,-58.46,,,
1288.467,-58.91,,,
1288.487,-58.21,,,
1288.507,-58.01,,,
1288.527,-58.29,,,
1288.547,-58.76,,,
1288.567,-58.92,,,
1288.587,-58.58,,,
1288.607,-58.08,,,
1288.627,-58.33,,,
1288.647,-58.89,,,
1288.667,-57.87,,,
1288.687,-57.42,,,
1288.707,-57.59,,,
1288.727,-58.26,,,
1288.747,-58.71,,,
1288.767,-57.84,,,
1288.787,-57.65,,,
1288.807,-58.66,,,
1288.827,-58.55,,,
1288.847,-57.95,,,
1288.867,-57.55,,,
1288.887,-57.76,,,
1288.907,-58.28,,,
1288.927,-58.12,,,
1288.947,-58.37,,,
1288.967,-58.26,,,
1288.987,-58.51,,,
1289.007,-58.59,,,
1289.027,-57.88,,,
1289.047,-57.73,,,
1289.067,-57.9,,,
1289.087,-58.44,,,
1289.107,-57.88,,,
1289.127,-57.56,,,
1289.147,-58.09,,,
1289.167,-58.62,,,
1289.188,-58.53,,,
1289.207,-58.03,,,
1289.227,-57.83,,,
1289.247,-58.26,,,
1289.267,-58.56,,,
1289.287,-58.68,,,
1289.307,-58.3,,,
1289.328,-58.82,,,
1289.347,-59.86,,,
1289.367,-59.73,,,
1289.387,-58.59,,,
1289.407,-58.67,,,
1289.427,-59.18,,,
1289.448,-58.58,,,
1289.468,-58.68,,,
1289.488,-58.15,,,
1289.507,-58.31,,,
1289.527,-58.8,,,
1289.547,-59.31,,,
1289.568,-58.15,,,
1289.588,-58.07,,,
1289.608,-58.76,,,
1289.628,-58.76,,,
1289.647,-58.2,,,
1289.667,-57.96,,,
1289.688,-58.42,,,
1289.708,-59.06,,,
1289.728,-59.1,,,
1289.748,-58.12,,,
1289.768,-58.49,,,
1289.787,-58.07,,,
1289.807,-58.55,,,
1289.828,-57.93,,,
1289.848,-57.91,,,
1289.868,-57.94,,,
1289.888,-58.55,,,
1289.908,-58.49,,,
1289.927,-58.35,,,
1289.948,-57.99,,,
1289.968,-58.83,,,
1289.988,-58.52,,,
1290.008,-58.31,,,
1290.028,-58.11,,,
1290.048,-58.3,,,
1290.068,-58.68,,,
1290.088,-58.35,,,
1290.108,-58.72,,,
1290.128,-58.62,,,
1290.148,-59.09,,,
1290.168,-58.77,,,
1290.188,-58.47,,,
1290.208,-58.48,,,
1290.228,-58.63,,,
1290.248,-58.84,,,
1290.268,-58.41,,,
1290.288,-58.01,,,
1290.308,-58.29,,,
1290.328,-58.72,,,
1290.348,-58.55,,,
1290.368,-58.24,,,
1290.388,-58.21,,,
1290.408,-58.24,,,
1290.428,-58.67,,,
1290.448,-58.76,,,
1290.468,-58.42,,,
1290.488,-58.77,,,
1290.508,-59.45,,,
1290.528,-59.23,,,
1290.548,-58.87,,,
1290.568,-58.83,,,
1290.588,-59.73,,,
1290.608,-59.61,,,
1290.628,-58.71,,,
1290.648,-58.66,,,
1290.668,-59.07,,,
1290.688,-60.04,,,
1290.708,-59.04,,,
1290.728,-58.66,,,
1290.748,-58.6,,,
1290.768,-60.27,,,
1290.788,-59.36,,,
1290.808,-58.96,,,
1290.828,-58.61,,,
1290.848,-59.18,,,
1290.868,-60.34,,,
1290.888,-59.74,,,
1290.908,-58.53,,,
1290.928,-59.4,,,
1290.948,-59.96,,,
1290.968,-59.58,,,
1290.988,-58.88,,,
1291.008,-58.48,,,
1291.028,-58.87,,,
1291.048,-60.12,,,
1291.068,-59.31,,,
1291.088,-58.23,,,
1291.108,-58.7,,,
1291.128,-59.49,,,
1291.148,-59.19,,,
1291.168,-58.65,,,
1291.188,-58.53,,,
1291.208,-59.5,,,
1291.228,-59.86,,,
1291.248,-59,,,
1291.268,-58.8,,,
1291.288,-59.43,,,
1291.308,-59.86,,,
1291.328,-58.81,,,
1291.348,-58.54,,,
1291.368,-58.35,,,
1291.388,-59.66,,,
1291.408,-60,,,
1291.428,-58.44,,,
1291.448,-58.7,,,
1291.468,-59.85,,,
1291.488,-60.13,,,
1291.508,-58.73,,,
1291.528,-58.22,,,
1291.548,-59.1,,,
1291.568,-59.6,,,
1291.588,-59.17,,,
1291.608,-58.59,,,
1291.628,-59.1,,,
1291.648,-60.14,,,
1291.668,-60.52,,,
1291.688,-59.43,,,
1291.708,-58.82,,,
1291.728,-59.26,,,
1291.748,-60.16,,,
1291.768,-58.89,,,
1291.788,-58.49,,,
1291.808,-58.82,,,
1291.828,-60.29,,,
1291.848,-60.44,,,
1291.868,-58.93,,,
1291.888,-59.36,,,
1291.908,-60.4,,,
1291.928,-60.74,,,
1291.948,-59.69,,,
1291.968,-58.78,,,
1291.988,-58.99,,,
1292.008,-61,,,
1292.028,-59.41,,,
1292.048,-58.38,,,
1292.068,-58.6,,,
1292.088,-59.75,,,
1292.108,-60.05,,,
1292.128,-59.01,,,
1292.148,-58.46,,,
1292.168,-58.9,,,
1292.188,-59.44,,,
1292.208,-58.66,,,
1292.228,-58.07,,,
1292.248,-58.31,,,
1292.268,-59.2,,,
1292.288,-59.52,,,
1292.308,-58.97,,,
1292.328,-58.85,,,
1292.348,-60.08,,,
1292.368,-60.41,,,
1292.388,-58.84,,,
1292.408,-58.63,,,
1292.428,-59.14,,,
1292.448,-59.31,,,
1292.468,-58.21,,,
1292.488,-57.92,,,
1292.508,-58.58,,,
1292.528,-59.01,,,
1292.548,-59.3,,,
1292.568,-58.31,,,
1292.588,-58.14,,,
1292.608,-58.88,,,
1292.628,-59.32,,,
1292.648,-58.32,,,
1292.668,-57.76,,,
1292.688,-58.05,,,
1292.708,-59.44,,,
1292.728,-58.81,,,
1292.748,-58.17,,,
1292.768,-58.67,,,
1292.788,-59.87,,,
1292.808,-60.35,,,
1292.828,-58.67,,,
1292.848,-58.51,,,
1292.868,-58.69,,,
1292.888,-59.27,,,
1292.908,-58.3,,,
1292.928,-57.6,,,
1292.948,-57.92,,,
1292.968,-59.27,,,
1292.988,-58.69,,,
1293.008,-58.26,,,
1293.028,-58.47,,,
1293.048,-59.98,,,
1293.068,-60.56,,,
1293.088,-59.23,,,
1293.108,-58.64,,,
1293.128,-59.29,,,
1293.148,-60.7,,,
1293.168,-59.26,,,
1293.188,-58.74,,,
1293.208,-59.31,,,
1293.228,-60.68,,,
1293.248,-60.58,,,
1293.268,-58.82,,,
1293.288,-58.24,,,
1293.308,-60.08,,,
1293.328,-59.93,,,
1293.348,-58.64,,,
1293.368,-58.09,,,
1293.388,-58.49,,,
1293.408,-59.56,,,
1293.428,-59.66,,,
1293.448,-59.08,,,
1293.468,-59.63,,,
1293.488,-61.59,,,
1293.508,-61.53,,,
1293.528,-59.88,,,
1293.548,-59.3,,,
1293.568,-60.04,,,
1293.588,-60.91,,,
1293.608,-59.27,,,
1293.628,-58.97,,,
1293.648,-59.11,,,
1293.668,-60.49,,,
1293.688,-60.35,,,
1293.708,-58.87,,,
1293.728,-59.13,,,
1293.748,-60.33,,,
1293.768,-59.95,,,
1293.788,-58.53,,,
1293.808,-58.14,,,
1293.828,-58.89,,,
1293.848,-60.11,,,
1293.868,-59.48,,,
1293.888,-58.79,,,
1293.908,-59.82,,,
1293.928,-61.51,,,
1293.948,-60.29,,,
1293.968,-59.14,,,
1293.988,-58.91,,,
1294.008,-60.28,,,
1294.028,-59.32,,,
1294.048,-58.37,,,
1294.068,-57.96,,,
1294.088,-58.81,,,
1294.108,-59.86,,,
1294.128,-58.63,,,
1294.148,-58.27,,,
1294.168,-59.45,,,
1294.188,-60.17,,,
1294.208,-59.05,,,
1294.228,-58.3,,,
1294.248,-58.12,,,
1294.268,-60.3,,,
1294.288,-59.94,,,
1294.308,-58.64,,,
1294.328,-58.3,,,
1294.348,-59.65,,,
1294.368,-60.67,,,
1294.388,-60.04,,,
1294.408,-58.59,,,
1294.428,-58.32,,,
1294.448,-60.32,,,
1294.468,-59.01,,,
1294.488,-58.02,,,
1294.508,-57.84,,,
1294.528,-58.36,,,
1294.548,-59.66,,,
1294.568,-58.43,,,
1294.588,-58.42,,,
1294.608,-58.95,,,
1294.628,-60.16,,,
1294.648,-59.31,,,
1294.668,-58.27,,,
1294.688,-58.31,,,
1294.708,-59.13,,,
1294.728,-59.52,,,
1294.748,-58.42,,,
1294.768,-58.41,,,
1294.788,-59.7,,,
1294.808,-60.28,,,
1294.828,-59.41,,,
1294.848,-58.35,,,
1294.868,-58.43,,,
1294.888,-59.22,,,
1294.908,-58.15,,,
1294.928,-57.5,,,
1294.948,-57.62,,,
1294.968,-58.7,,,
1294.988,-58.59,,,
1295.008,-57.98,,,
1295.028,-58.31,,,
1295.048,-59.73,,,
1295.068,-59.99,,,
1295.088,-58.63,,,
1295.108,-58.21,,,
1295.128,-59.02,,,
1295.148,-59.23,,,
1295.168,-58.18,,,
1295.188,-57.85,,,
1295.208,-58.3,,,
1295.228,-59.61,,,
1295.248,-59.36,,,
1295.268,-58.02,,,
1295.288,-57.99,,,
1295.308,-59.49,,,
1295.328,-58.99,,,
1295.348,-58.06,,,
1295.368,-57.68,,,
1295.388,-58.12,,,
1295.408,-59.83,,,
1295.428,-58.77,,,
1295.448,-58.04,,,
1295.468,-58.49,,,
1295.488,-59.95,,,
1295.508,-60.31,,,
1295.528,-58.7,,,
1295.548,-58.51,,,
1295.568,-59.11,,,
1295.588,-59.49,,,
1295.608,-58.43,,,
1295.628,-57.98,,,
1295.648,-58.68,,,
1295.668,-59.65,,,
1295.688,-59.89,,,
1295.708,-58.58,,,
1295.728,-59.33,,,
1295.748,-59.94,,,
1295.768,-59.41,,,
1295.788,-58.4,,,
1295.808,-58.02,,,
1295.828,-58.66,,,
1295.848,-59.55,,,
1295.868,-58.71,,,
1295.888,-58.16,,,
1295.908,-59.11,,,
1295.928,-60.65,,,
1295.948,-59.23,,,
1295.968,-58.43,,,
1295.988,-59.17,,,
1296.008,-60.04,,,
1296.028,-59.57,,,
1296.048,-58.76,,,
1296.068,-58.59,,,
1296.088,-59.99,,,
1296.108,-59.94,,,
1296.128,-58.83,,,
1296.148,-58.66,,,
1296.168,-59.9,,,
1296.188,-61.06,,,
1296.208,-58.96,,,
1296.228,-58.39,,,
1296.248,-59.04,,,
1296.268,-60.35,,,
1296.288,-59.32,,,
1296.308,-58.34,,,
1296.328,-59.32,,,
1296.348,-60.42,,,
1296.368,-60.46,,,
1296.388,-58.97,,,
1296.408,-58.41,,,
1296.428,-59.28,,,
1296.448,-59.64,,,
1296.468,-58.45,,,
1296.488,-58.06,,,
1296.508,-58.67,,,
1296.528,-59.39,,,
1296.548,-59.19,,,
1296.568,-58.26,,,
1296.588,-58.95,,,
1296.608,-59.93,,,
1296.628,-59.48,,,
1296.648,-58.5,,,
1296.668,-58.3,,,
1296.688,-59.27,,,
1296.708,-58.51,,,
1296.728,-57.81,,,
1296.748,-57.77,,,
1296.768,-58.47,,,
1296.788,-59.68,,,
1296.808,-58.83,,,
1296.828,-58.65,,,
1296.848,-59.04,,,
1296.868,-59.84,,,
1296.888,-59.42,,,
1296.908,-58.07,,,
1296.928,-58.6,,,
1296.948,-59.56,,,
1296.968,-59,,,
1296.988,-58.49,,,
1297.008,-58.05,,,
1297.028,-58.6,,,
1297.048,-59.13,,,
1297.068,-58.3,,,
1297.088,-58.11,,,
1297.108,-58.77,,,
1297.128,-59.57,,,
1297.148,-59.16,,,
1297.168,-57.74,,,
1297.188,-58.24,,,
1297.208,-59.33,,,
1297.229,-58.82,,,
1297.248,-58.11,,,
1297.268,-57.98,,,
1297.288,-59.58,,,
1297.308,-59.23,,,
1297.328,-58.34,,,
1297.349,-58.35,,,
1297.369,-59.23,,,
1297.388,-59.87,,,
1297.408,-58.83,,,
1297.428,-58.19,,,
1297.448,-59.9,,,
1297.469,-59.81,,,
1297.489,-58.98,,,
1297.509,-58.21,,,
1297.528,-58.48,,,
1297.548,-59.79,,,
1297.568,-58.69,,,
1297.589,-58,,,
1297.609,-58.08,,,
1297.629,-59.03,,,
1297.649,-59.12,,,
1297.668,-58.08,,,
1297.688,-58,,,
1297.708,-59,,,
1297.729,-59.43,,,
1297.749,-58.85,,,
1297.769,-57.95,,,
1297.789,-58.46,,,
1297.808,-59.07,,,
1297.828,-58.09,,,
1297.849,-57.62,,,
1297.869,-57.83,,,
1297.889,-58.7,,,
1297.909,-58.79,,,
1297.929,-57.91,,,
1297.948,-58.57,,,
1297.969,-59.17,,,
1297.989,-59.28,,,
1298.009,-58.51,,,
1298.029,-58.17,,,
1298.049,-58.73,,,
1298.069,-58.55,,,
1298.089,-58.19,,,
1298.109,-57.63,,,
1298.129,-57.97,,,
1298.149,-58.72,,,
1298.169,-58.58,,,
1298.189,-57.58,,,
1298.209,-58.53,,,
1298.229,-58.89,,,
1298.249,-58.82,,,
1298.269,-57.86,,,
1298.289,-57.55,,,
1298.309,-58.37,,,
1298.329,-58.06,,,
1298.349,-57.28,,,
1298.369,-56.84,,,
1298.389,-57.48,,,
1298.409,-58.71,,,
1298.429,-57.55,,,
1298.449,-57.24,,,
1298.469,-57.8,,,
1298.489,-58.46,,,
1298.509,-58.26,,,
1298.529,-57.45,,,
1298.549,-57.65,,,
1298.569,-58.15,,,
1298.589,-58.22,,,
1298.609,-57.26,,,
1298.629,-57.3,,,
1298.649,-57.64,,,
1298.669,-58.49,,,
1298.689,-57.29,,,
1298.709,-57.05,,,
1298.729,-57.63,,,
1298.749,-58.37,,,
1298.769,-58.25,,,
1298.789,-57.25,,,
1298.809,-57.24,,,
1298.829,-58.11,,,
1298.849,-57.97,,,
1298.869,-57.24,,,
1298.889,-57,,,
1298.909,-57.83,,,
1298.929,-58.03,,,
1298.949,-57.07,,,
1298.969,-57,,,
1298.989,-57.34,,,
1299.009,-57.94,,,
1299.029,-57.28,,,
1299.049,-57.04,,,
1299.069,-57.63,,,
1299.089,-58.2,,,
1299.109,-57.71,,,
1299.129,-56.98,,,
1299.149,-56.74,,,
1299.169,-57.84,,,
1299.189,-57.17,,,
1299.209,-56.64,,,
1299.229,-56.77,,,
1299.249,-57.62,,,
1299.269,-58,,,
1299.289,-57.27,,,
1299.309,-56.81,,,
1299.329,-57.95,,,
1299.349,-58.58,,,
1299.369,-57.88,,,
1299.389,-57.14,,,
1299.409,-57.5,,,
1299.429,-58.36,,,
1299.449,-57.68,,,
1299.469,-57.1,,,
1299.489,-57.36,,,
1299.509,-58.01,,,
1299.529,-58.05,,,
1299.549,-57.57,,,
1299.569,-57.4,,,
1299.589,-58.38,,,
1299.609,-58.29,,,
1299.629,-58.09,,,
1299.649,-57.26,,,
1299.669,-58.41,,,
1299.689,-58.65,,,
1299.709,-58.13,,,
1299.729,-57.41,,,
1299.749,-57.64,,,
1299.769,-58.32,,,
1299.789,-58.25,,,
1299.809,-57.66,,,
1299.829,-57.95,,,
1299.849,-58.89,,,
1299.869,-59.27,,,
1299.889,-58.66,,,
1299.909,-58.35,,,
1299.929,-59.1,,,
1299.949,-59.22,,,
1299.969,-58.81,,,
1299.989,-57.92,,,
1300.009,-58.45,,,
1300.029,-59.02,,,
1300.049,-58.35,,,
1300.069,-57.49,,,
1300.089,-58.06,,,
1300.109,-58.27,,,
1300.129,-58.31,,,
1300.149,-58.03,,,
1300.169,-58.43,,,
1300.189,-59.43,,,
1300.209,-59.21,,,
1300.229,-58.57,,,
1300.249,-58.69,,,
1300.269,-59.28,,,
1300.289,-60.05,,,
1300.309,-58.63,,,
1300.329,-58.03,,,
1300.349,-58.6,,,
1300.369,-58.56,,,
1300.389,-58.4,,,
1300.409,-57.72,,,
1300.429,-58.29,,,
1300.449,-58.3,,,
1300.469,-58.18,,,
1300.489,-57.74,,,
1300.509,-58.05,,,
1300.529,-58.18,,,
1300.549,-57.93,,,
1300.569,-57.68,,,
1300.589,-57.95,,,
1300.609,-58.51,,,
1300.629,-58.74,,,
1300.649,-57.99,,,
1300.669,-57.87,,,
1300.689,-58.31,,,
1300.709,-58.35,,,
1300.729,-58.11,,,
1300.749,-57.51,,,
1300.769,-58.1,,,
1300.789,-58.49,,,
1300.809,-58.05,,,
1300.829,-57.68,,,
1300.849,-57.97,,,
1300.869,-58.46,,,
1300.889,-57.94,,,
1300.909,-57.45,,,
1300.929,-57.86,,,
1300.949,-57.97,,,
1300.969,-58.18,,,
1300.989,-57.69,,,
1301.009,-57.87,,,
1301.029,-58.48,,,
1301.049,-59.08,,,
1301.069,-58.14,,,
1301.089,-58.22,,,
1301.109,-59.05,,,
1301.129,-59.72,,,
1301.149,-58.91,,,
1301.169,-58.07,,,
1301.189,-58.86,,,
1301.209,-58.83,,,
1301.229,-58.34,,,
1301.249,-57.46,,,
1301.269,-57.31,,,
1301.289,-58.17,,,
1301.309,-58.06,,,
1301.329,-57.4,,,
1301.349,-57.69,,,
1301.369,-58.63,,,
1301.389,-59.01,,,
1301.409,-57.88,,,
1301.429,-58.12,,,
1301.449,-59.15,,,
1301.469,-59.52,,,
1301.489,-58.65,,,
1301.509,-57.86,,,
1301.529,-58.46,,,
1301.549,-58.73,,,
1301.569,-57.95,,,
1301.589,-57.34,,,
1301.609,-57.35,,,
1301.629,-58.3,,,
1301.649,-58.13,,,
1301.669,-57.41,,,
1301.689,-57.98,,,
1301.709,-59.02,,,
1301.729,-58.8,,,
1301.749,-57.97,,,
1301.769,-57.66,,,
1301.789,-58.62,,,
1301.809,-58.52,,,
1301.829,-57.76,,,
1301.849,-57.34,,,
1301.869,-57.99,,,
1301.889,-58.2,,,
1301.909,-57.52,,,
1301.929,-57.08,,,
1301.949,-57.52,,,
1301.969,-58.37,,,
1301.989,-58.1,,,
1302.009,-57.35,,,
1302.029,-57.48,,,
1302.049,-58.13,,,
1302.069,-57.85,,,
1302.089,-57.21,,,
1302.109,-57.23,,,
1302.129,-57.69,,,
1302.149,-57.96,,,
1302.169,-57.1,,,
1302.189,-56.92,,,
1302.209,-57.43,,,
1302.229,-57.38,,,
1302.249,-57.48,,,
1302.269,-57.01,,,
1302.289,-57.71,,,
1302.309,-58.31,,,
1302.329,-57.95,,,
1302.349,-57.47,,,
1302.369,-57.67,,,
1302.389,-58.38,,,
1302.409,-57.94,,,
1302.429,-57.47,,,
1302.449,-57.64,,,
1302.469,-57.63,,,
1302.489,-57.52,,,
1302.509,-57.46,,,
1302.529,-57.18,,,
1302.549,-58.17,,,
1302.569,-57.96,,,
1302.589,-58.2,,,
1302.609,-57.64,,,
1302.629,-57.88,,,
1302.649,-58.4,,,
1302.669,-58.09,,,
1302.689,-57.44,,,
1302.709,-57.68,,,
1302.729,-58.3,,,
1302.749,-58.42,,,
1302.769,-58.15,,,
1302.789,-58.49,,,
1302.809,-58.86,,,
1302.829,-58.69,,,
1302.849,-58.01,,,
1302.869,-57.97,,,
1302.889,-58.78,,,
1302.909,-58.59,,,
1302.929,-58.56,,,
1302.949,-57.94,,,
1302.969,-58.47,,,
1302.989,-58.05,,,
1303.009,-57.66,,,
1303.029,-57.45,,,
1303.049,-57.85,,,
1303.069,-58.81,,,
1303.089,-58.36,,,
1303.109,-58.05,,,
1303.129,-58.27,,,
1303.149,-58.54,,,
1303.169,-58.75,,,
1303.189,-58.16,,,
1303.209,-59.03,,,
1303.229,-59.08,,,
1303.249,-59.08,,,
1303.269,-58.52,,,
1303.289,-58.08,,,
1303.309,-58.56,,,
1303.329,-58.62,,,
1303.349,-58.38,,,
1303.369,-57.79,,,
1303.389,-58.42,,,
1303.409,-58.92,,,
1303.429,-58.41,,,
1303.449,-58.11,,,
1303.469,-58.99,,,
1303.489,-58.94,,,
1303.509,-59.01,,,
1303.529,-58.03,,,
1303.549,-59.14,,,
1303.569,-59.37,,,
1303.589,-59.18,,,
1303.609,-58.81,,,
1303.629,-58.37,,,
1303.649,-58.54,,,
1303.669,-58.36,,,
1303.689,-58.25,,,
1303.709,-57.88,,,
1303.729,-58.8,,,
1303.749,-57.89,,,
1303.769,-57.47,,,
1303.789,-57.45,,,
1303.809,-58.09,,,
1303.829,-58.19,,,
1303.849,-58.2,,,
1303.869,-58.06,,,
1303.889,-58.74,,,
1303.909,-58.38,,,
1303.929,-58.46,,,
1303.949,-58.16,,,
1303.969,-58.93,,,
1303.989,-59.09,,,
1304.009,-58.92,,,
1304.029,-58.79,,,
1304.049,-58.93,,,
1304.069,-58.94,,,
1304.089,-58.59,,,
1304.109,-58.18,,,
1304.129,-58.39,,,
1304.149,-58.09,,,
1304.169,-58.38,,,
1304.189,-57.85,,,
1304.209,-58.01,,,
1304.229,-58.72,,,
1304.249,-58.65,,,
1304.269,-58.7,,,
1304.289,-58.62,,,
1304.309,-59.15,,,
1304.329,-59.13,,,
1304.349,-59.31,,,
1304.369,-59.27,,,
1304.389,-59.63,,,
1304.409,-58.91,,,
1304.429,-58.9,,,
1304.449,-59.14,,,
1304.469,-59.15,,,
1304.489,-59.1,,,
1304.509,-59.45,,,
1304.529,-58.88,,,
1304.549,-58.73,,,
1304.569,-58.63,,,
1304.589,-58.52,,,
1304.609,-58.69,,,
1304.629,-59.01,,,
1304.649,-58.83,,,
1304.669,-58.6,,,
1304.689,-59.06,,,
1304.709,-58.64,,,
1304.729,-59.06,,,
1304.749,-59.28,,,
1304.769,-59.58,,,
1304.789,-59.46,,,
1304.809,-59.23,,,
1304.829,-59.15,,,
1304.849,-59.6,,,
1304.869,-59.6,,,
1304.889,-59.33,,,
1304.909,-59.81,,,
1304.929,-59.31,,,
1304.949,-59.63,,,
1304.969,-59.09,,,
1304.989,-59.13,,,
1305.009,-59.15,,,
1305.029,-58.77,,,
1305.049,-58.6,,,
1305.069,-58.48,,,
1305.089,-58.94,,,
1305.109,-58.65,,,
1305.129,-59.42,,,
1305.149,-58.85,,,
1305.169,-59.4,,,
1305.189,-59.77,,,
1305.209,-59.4,,,
1305.229,-59.48,,,
1305.25,-59.35,,,
1305.269,-60.04,,,
1305.289,-59.8,,,
1305.309,-59.09,,,
1305.329,-59.15,,,
1305.349,-59.44,,,
1305.37,-59.02,,,
1305.39,-58.94,,,
1305.409,-59.34,,,
1305.429,-58.89,,,
1305.449,-59.2,,,
1305.469,-58.46,,,
1305.49,-58.5,,,
1305.51,-58.53,,,
1305.53,-58.54,,,
1305.549,-58.47,,,
1305.569,-58.29,,,
1305.589,-58.48,,,
1305.609,-58.47,,,
1305.63,-59.45,,,
1305.65,-58.85,,,
1305.67,-59.13,,,
1305.689,-59.48,,,
1305.709,-59.44,,,
1305.729,-59.86,,,
1305.75,-59.14,,,
1305.77,-59.37,,,
1305.79,-59.19,,,
1305.81,-59.32,,,
1305.83,-59.18,,,
1305.849,-58.38,,,
1305.87,-58.52,,,
1305.89,-58.09,,,
1305.91,-58.75,,,
1305.93,-58.09,,,
1305.95,-58.19,,,
1305.97,-58.83,,,
1305.99,-58.46,,,
1306.01,-58.81,,,
1306.03,-59,,,
1306.05,-59.65,,,
1306.07,-59.7,,,
1306.09,-60.24,,,
1306.11,-59.74,,,
1306.13,-60.5,,,
1306.15,-60.4,,,
1306.17,-59.7,,,
1306.19,-59.22,,,
1306.21,-59.01,,,
1306.23,-59.33,,,
1306.25,-58.59,,,
1306.27,-58.06,,,
1306.29,-58.76,,,
1306.31,-58.6,,,
1306.33,-58.51,,,
1306.35,-58.55,,,
1306.37,-58.86,,,
1306.39,-58.96,,,
1306.41,-59.5,,,
1306.43,-58.57,,,
1306.45,-59.26,,,
1306.47,-59.51,,,
1306.49,-59.54,,,
1306.51,-58.87,,,
1306.53,-60,,,
1306.55,-60.21,,,
1306.57,-60.54,,,
1306.59,-60.18,,,
1306.61,-58.79,,,
1306.63,-58.89,,,
1306.65,-59.07,,,
1306.67,-58.66,,,
1306.69,-58.63,,,
1306.71,-58.61,,,
1306.73,-58.45,,,
1306.75,-58.48,,,
1306.77,-58.38,,,
1306.79,-58.73,,,
1306.81,-58.92,,,
1306.83,-59.23,,,
1306.85,-59.02,,,
1306.87,-59.89,,,
1306.89,-59.57,,,
1306.91,-59.42,,,
1306.93,-60.11,,,
1306.95,-59.44,,,
1306.97,-59.72,,,
1306.99,-59.43,,,
1307.01,-59.01,,,
1307.03,-59.22,,,
1307.05,-58.81,,,
1307.07,-58.77,,,
1307.09,-58.24,,,
1307.11,-58.25,,,
1307.13,-57.88,,,
1307.15,-57.95,,,
1307.17,-58.04,,,
1307.19,-58.35,,,
1307.21,-58.61,,,
1307.23,-58.37,,,
1307.25,-58.8,,,
1307.27,-58.9,,,
1307.29,-59.03,,,
1307.31,-59.29,,,
1307.33,-59.27,,,
1307.35,-59.48,,,
1307.37,-59.1,,,
1307.39,-58.61,,,
1307.41,-58.65,,,
1307.43,-58.82,,,
1307.45,-58.19,,,
1307.47,-57.72,,,
1307.49,-58.56,,,
1307.51,-58.03,,,
1307.53,-57.77,,,
1307.55,-57.47,,,
1307.57,-57.65,,,
1307.59,-57.52,,,
1307.61,-58.09,,,
1307.63,-57.79,,,
1307.65,-58.26,,,
1307.67,-58.6,,,
1307.69,-58.19,,,
1307.71,-57.85,,,
1307.73,-58.14,,,
1307.75,-58.36,,,
1307.77,-58.41,,,
1307.79,-58.13,,,
1307.81,-57.96,,,
1307.83,-58.23,,,
1307.85,-58.21,,,
1307.87,-57.68,,,
1307.89,-57.94,,,
1307.91,-58.25,,,
1307.93,-58.3,,,
1307.95,-57.71,,,
1307.97,-57.7,,,
1307.99,-58.65,,,
1308.01,-58.65,,,
1308.03,-58.28,,,
1308.05,-58.15,,,
1308.07,-59.31,,,
1308.09,-59.41,,,
1308.11,-58.89,,,
1308.13,-58.82,,,
1308.15,-59.35,,,
1308.17,-59.63,,,
1308.19,-58.5,,,
1308.21,-58.45,,,
1308.23,-58.89,,,
1308.25,-59.13,,,
1308.27,-57.87,,,
1308.29,-57.78,,,
1308.31,-58.2,,,
1308.33,-58.21,,,
1308.35,-57.31,,,
1308.37,-57.13,,,
1308.39,-58.07,,,
1308.41,-58.13,,,
1308.43,-57.8,,,
1308.45,-57.64,,,
1308.47,-58.14,,,
1308.49,-58.67,,,
1308.51,-58.4,,,
1308.53,-58.05,,,
1308.55,-58.62,,,
1308.57,-60.2,,,
1308.59,-59.1,,,
1308.61,-59.05,,,
1308.63,-59.52,,,
1308.65,-60.98,,,
1308.67,-59.55,,,
1308.69,-59.28,,,
1308.71,-59.12,,,
1308.73,-60.95,,,
1308.75,-60.13,,,
1308.77,-58.81,,,
1308.79,-59.08,,,
1308.81,-59.69,,,
1308.83,-58.79,,,
1308.85,-58.29,,,
1308.87,-58.65,,,
1308.89,-59.3,,,
1308.91,-59,,,
1308.93,-58.18,,,
1308.95,-58.77,,,
1308.97,-59.41,,,
1308.99,-58.91,,,
1309.01,-58.66,,,
1309.03,-58.99,,,
1309.05,-59.37,,,
1309.07,-59.19,,,
1309.09,-58.69,,,
1309.11,-58.24,,,
1309.13,-59.19,,,
1309.15,-59.35,,,
1309.17,-58.64,,,
1309.19,-58.54,,,
1309.21,-59.18,,,
1309.23,-58.88,,,
1309.25,-58.61,,,
1309.27,-58.61,,,
1309.29,-59.09,,,
1309.31,-59,,,
1309.33,-58.71,,,
1309.35,-59.03,,,
1309.37,-59.24,,,
1309.39,-59.78,,,
1309.41,-59.66,,,
1309.43,-59.08,,,
1309.45,-59.53,,,
1309.47,-59.15,,,
1309.49,-59.29,,,
1309.51,-59.55,,,
1309.53,-59.28,,,
1309.55,-59.18,,,
1309.57,-59.12,,,
1309.59,-58.94,,,
1309.61,-58.78,,,
1309.63,-58.95,,,
1309.65,-58.72,,,
1309.67,-58.52,,,
1309.69,-59.28,,,
1309.71,-59.96,,,
1309.73,-59.26,,,
1309.75,-59.11,,,
1309.77,-59.24,,,
1309.79,-59.15,,,
1309.81,-59.44,,,
1309.83,-59.41,,,
1309.85,-59.51,,,
1309.87,-59.35,,,
1309.89,-58.92,,,
1309.91,-58.77,,,
1309.93,-58.83,,,
1309.95,-58.83,,,
1309.97,-58.83,,,
1309.99,-58.06,,,
1310.01,-58.24,,,
1310.03,-58.55,,,
1310.05,-58.36,,,
1310.07,-57.56,,,
1310.09,-57.95,,,
1310.11,-58.14,,,
1310.13,-58.03,,,
1310.15,-57.86,,,
1310.17,-57.95,,,
1310.19,-58.39,,,
1310.21,-58.46,,,
1310.23,-58.56,,,
1310.25,-58.45,,,
1310.27,-59.23,,,
1310.29,-58.96,,,
1310.31,-58.91,,,
1310.33,-58.6,,,
1310.35,-59.77,,,
1310.37,-59.58,,,
1310.39,-58.33,,,
1310.41,-58.26,,,
1310.43,-58.93,,,
1310.45,-59.86,,,
1310.47,-58.46,,,
1310.49,-57.9,,,
1310.51,-58.51,,,
1310.53,-59.04,,,
1310.55,-58.11,,,
1310.57,-57.72,,,
1310.59,-58.88,,,
1310.61,-59.02,,,
1310.63,-57.79,,,
1310.65,-57.5,,,
1310.67,-58.41,,,
1310.69,-58.33,,,
1310.71,-57.34,,,
1310.73,-56.99,,,
1310.75,-57.13,,,
1310.77,-58.15,,,
1310.79,-57.09,,,
1310.81,-57.06,,,
1310.83,-57.34,,,
1310.85,-58.16,,,
1310.87,-57.88,,,
1310.89,-57.6,,,
1310.91,-58,,,
1310.93,-58.82,,,
1310.95,-57.97,,,
1310.97,-57.88,,,
1310.99,-58.67,,,
1311.01,-59.51,,,
1311.03,-58.42,,,
1311.05,-58.11,,,
1311.07,-58.95,,,
1311.09,-59.96,,,
1311.11,-58.98,,,
1311.13,-58.29,,,
1311.15,-58.09,,,
1311.17,-59.12,,,
1311.19,-58.28,,,
1311.21,-57.5,,,
1311.23,-57.81,,,
1311.25,-58.44,,,
1311.27,-57.81,,,
1311.29,-57.18,,,
1311.31,-57.63,,,
1311.33,-58.01,,,
1311.35,-57.59,,,
1311.37,-56.92,,,
1311.39,-57.5,,,
1311.41,-57.76,,,
1311.43,-57.15,,,
1311.45,-56.81,,,
1311.47,-57.32,,,
1311.49,-57.82,,,
1311.51,-57.73,,,
1311.53,-56.99,,,
1311.55,-57.44,,,
1311.57,-57.8,,,
1311.59,-57.53,,,
1311.61,-57.2,,,
1311.63,-57.4,,,
1311.65,-57.87,,,
1311.67,-57.8,,,
1311.69,-57.36,,,
1311.71,-58.01,,,
1311.73,-59.08,,,
1311.75,-58.48,,,
1311.77,-58.46,,,
1311.79,-58.75,,,
1311.81,-59.63,,,
1311.83,-59.77,,,
1311.85,-58.87,,,
1311.87,-58.72,,,
1311.89,-60.33,,,
1311.91,-60.08,,,
1311.93,-59.51,,,
1311.95,-59.58,,,
1311.97,-60.39,,,
1311.99,-59.76,,,
1312.01,-59.12,,,
1312.03,-59.06,,,
1312.05,-59.15,,,
1312.07,-59.28,,,
1312.09,-58.48,,,
1312.11,-57.96,,,
1312.13,-58.89,,,
1312.15,-58.89,,,
1312.17,-58.29,,,
1312.19,-58.55,,,
1312.21,-59.05,,,
1312.23,-59.17,,,
1312.25,-58.42,,,
1312.27,-58.71,,,
1312.29,-59.44,,,
1312.31,-59.82,,,
1312.33,-58.66,,,
1312.35,-58.95,,,
1312.37,-59.74,,,
1312.39,-60.32,,,
1312.41,-59.89,,,
1312.43,-59.58,,,
1312.45,-60.06,,,
1312.47,-60.8,,,
1312.49,-59.55,,,
1312.51,-59.49,,,
1312.53,-60.64,,,
1312.55,-61.24,,,
1312.57,-60.18,,,
1312.59,-59.79,,,
1312.61,-61.1,,,
1312.63,-62.31,,,
1312.65,-60.46,,,
1312.67,-60.27,,,
1312.69,-61.64,,,
1312.71,-62.19,,,
1312.73,-60.68,,,
1312.75,-59.72,,,
1312.77,-61.05,,,
1312.79,-61.66,,,
1312.81,-60.21,,,
1312.83,-59.19,,,
1312.85,-61.57,,,
1312.87,-61.21,,,
1312.89,-59.59,,,
1312.91,-58.68,,,
1312.93,-59.81,,,
1312.95,-60.19,,,
1312.97,-59.03,,,
1312.99,-58.38,,,
1313.01,-58.56,,,
1313.03,-59.73,,,
1313.05,-58.67,,,
1313.07,-58.23,,,
1313.09,-58.95,,,
1313.11,-60.49,,,
1313.13,-59.08,,,
1313.15,-58.69,,,
1313.17,-58.51,,,
1313.19,-59.78,,,
1313.21,-58.58,,,
1313.23,-58.35,,,
1313.25,-59.05,,,
1313.271,-59.26,,,
1313.29,-57.85,,,
1313.31,-57.89,,,
1313.33,-58.51,,,
1313.35,-58.9,,,
1313.37,-58.02,,,
1313.391,-57.2,,,
1313.411,-57.91,,,
1313.431,-58.25,,,
1313.45,-57.43,,,
1313.47,-57,,,
1313.49,-57.69,,,
1313.51,-57.58,,,
1313.531,-57.15,,,
1313.551,-56.64,,,
1313.571,-57.26,,,
1313.59,-57.7,,,
1313.61,-56.61,,,
1313.63,-56.56,,,
1313.651,-57.36,,,
1313.671,-57.64,,,
1313.691,-56.45,,,
1313.711,-56.09,,,
1313.73,-56.75,,,
1313.75,-57.22,,,
1313.771,-56.52,,,
1313.791,-56.34,,,
1313.811,-57.17,,,
1313.831,-56.99,,,
1313.851,-56.4,,,
1313.87,-56.17,,,
1313.891,-57.16,,,
1313.911,-57.23,,,
1313.931,-56.47,,,
1313.951,-56.28,,,
1313.971,-56.94,,,
1313.991,-57.32,,,
1314.01,-56.95,,,
1314.031,-56.74,,,
1314.051,-57.09,,,
1314.071,-57.62,,,
1314.091,-56.68,,,
1314.111,-56.38,,,
1314.131,-56.98,,,
1314.151,-57.36,,,
1314.171,-56.8,,,
1314.191,-56.61,,,
1314.211,-57.12,,,
1314.231,-57.69,,,
1314.251,-56.85,,,
1314.271,-57.07,,,
1314.291,-57.53,,,
1314.311,-57.98,,,
1314.331,-57.28,,,
1314.351,-57.26,,,
1314.371,-57.67,,,
1314.391,-58.08,,,
1314.411,-57.9,,,
1314.431,-57.73,,,
1314.451,-58.15,,,
1314.471,-58.57,,,
1314.491,-58.51,,,
1314.511,-58.12,,,
1314.531,-58.76,,,
1314.551,-59.59,,,
1314.571,-58.43,,,
1314.591,-58.4,,,
1314.611,-59.4,,,
1314.631,-60.02,,,
1314.651,-58.7,,,
1314.671,-59,,,
1314.691,-59.85,,,
1314.711,-60.85,,,
1314.731,-59.87,,,
1314.751,-59.59,,,
1314.771,-60.18,,,
1314.791,-60.77,,,
1314.811,-59.74,,,
1314.831,-59.28,,,
1314.851,-60.6,,,
1314.871,-60.38,,,
1314.891,-59.22,,,
1314.911,-58.96,,,
1314.931,-60.38,,,
1314.951,-60.42,,,
1314.971,-59.84,,,
1314.991,-59.26,,,
1315.011,-60.47,,,
1315.031,-61.03,,,
1315.051,-59.66,,,
1315.071,-59.36,,,
1315.091,-61.4,,,
1315.111,-61,,,
1315.131,-60.6,,,
1315.151,-60.26,,,
1315.171,-60.85,,,
1315.191,-63.38,,,
1315.211,-60.14,,,
1315.231,-59.97,,,
1315.251,-60.42,,,
1315.271,-61.23,,,
1315.291,-59.73,,,
1315.311,-59.33,,,
1315.331,-59.86,,,
1315.351,-60.72,,,
1315.371,-59.8,,,
1315.391,-58.82,,,
1315.411,-59.34,,,
1315.431,-59.9,,,
1315.451,-59.08,,,
1315.471,-58.26,,,
1315.491,-58.75,,,
1315.511,-59.33,,,
1315.531,-58.38,,,
1315.551,-57.67,,,
1315.571,-58.57,,,
1315.591,-58.76,,,
1315.611,-57.75,,,
1315.631,-57.42,,,
1315.651,-57.6,,,
1315.671,-57.72,,,
1315.691,-57,,,
1315.711,-56.41,,,
1315.731,-56.92,,,
1315.751,-57.59,,,
1315.771,-56.45,,,
1315.791,-56.24,,,
1315.811,-56.92,,,
1315.831,-57.46,,,
1315.851,-56.54,,,
1315.871,-56.29,,,
1315.891,-56.93,,,
1315.911,-57.33,,,
1315.931,-56.54,,,
1315.951,-56.35,,,
1315.971,-57.08,,,
1315.991,-57.18,,,
1316.011,-56.26,,,
1316.031,-56.48,,,
1316.051,-57.29,,,
1316.071,-57.38,,,
1316.091,-56.55,,,
1316.111,-56.47,,,
1316.131,-57,,,
1316.151,-57.52,,,
1316.171,-56.58,,,
1316.191,-56.81,,,
1316.211,-57.46,,,
1316.231,-57.65,,,
1316.251,-56.99,,,
1316.271,-57.14,,,
1316.291,-58.22,,,
1316.311,-58.35,,,
1316.331,-57.55,,,
1316.351,-58.06,,,
1316.371,-59.07,,,
1316.391,-58.81,,,
1316.411,-58.34,,,
1316.431,-58.64,,,
1316.451,-59.82,,,
1316.471,-59.53,,,
1316.491,-58.73,,,
1316.511,-59.28,,,
1316.531,-60.56,,,
1316.551,-59.74,,,
1316.571,-58.88,,,
1316.591,-60.24,,,
1316.611,-60.91,,,
1316.631,-61.02,,,
1316.651,-59.72,,,
1316.671,-61.15,,,
1316.691,-64.41,,,
1316.711,-63.13,,,
1316.731,-60.26,,,
1316.751,-62.67,,,
1316.771,-64.37,,,
1316.791,-63.8,,,
1316.811,-61.71,,,
1316.831,-63.57,,,
1316.851,-66.51,,,
1316.871,-63.82,,,
1316.891,-62.52,,,
1316.911,-66.41,,,
1316.931,-67.41,,,
1316.951,-63.48,,,
1316.971,-61.96,,,
1316.991,-67.87,,,
1317.011,-68.5,,,
1317.031,-63.67,,,
1317.051,-62.16,,,
1317.071,-66.16,,,
1317.091,-66.65,,,
1317.111,-63.61,,,
1317.131,-62.43,,,
1317.151,-66.64,,,
1317.171,-67.6,,,
1317.191,-63.58,,,
1317.211,-63.37,,,
1317.231,-72.79,,,
1317.251,-72.22,,,
1317.271,-64.26,,,
1317.291,-63.97,,,
1317.311,-73.8,,,
1317.331,-68.63,,,
1317.351,-63.16,,,
1317.371,-63.52,,,
1317.391,-65.65,,,
1317.411,-65.69,,,
1317.431,-62.97,,,
1317.451,-63.68,,,
1317.471,-68.5,,,
1317.491,-65.42,,,
1317.511,-63.29,,,
1317.531,-65.93,,,
1317.551,-74.4,,,
1317.571,-66.76,,,
1317.591,-66.27,,,
1317.611,-66.85,,,
1317.631,-210,,,
1317.651,-67.75,,,
1317.671,-64.98,,,
1317.691,-68.06,,,
1317.711,-210,,,
1317.731,-66.71,,,
1317.751,-67.27,,,
1317.771,-75.54,,,
1317.791,-73.62,,,
1317.811,-64.75,,,
1317.831,-62.31,,,
1317.851,-68.87,,,
1317.871,-67.78,,,
1317.891,-63.37,,,
1317.911,-61.59,,,
1317.931,-65.72,,,
1317.951,-66.64,,,
1317.971,-62.94,,,
1317.991,-61.15,,,
1318.011,-64.36,,,
1318.031,-64.2,,,
1318.051,-61.56,,,
1318.071,-60.86,,,
1318.091,-63.39,,,
1318.111,-63.33,,,
1318.131,-61.04,,,
1318.151,-60.92,,,
1318.171,-62.07,,,
1318.191,-61.86,,,
1318.211,-59.43,,,
1318.231,-59.55,,,
1318.251,-60.4,,,
1318.271,-59.87,,,
1318.291,-58.71,,,
1318.311,-58.49,,,
1318.331,-59.78,,,
1318.351,-59.06,,,
1318.371,-58.26,,,
1318.391,-58.26,,,
1318.411,-59.14,,,
1318.431,-58.44,,,
1318.451,-57.66,,,
1318.471,-58.13,,,
1318.491,-58.94,,,
1318.511,-57.91,,,
1318.531,-57.67,,,
1318.551,-58.09,,,
1318.571,-58.69,,,
1318.591,-57.44,,,
1318.611,-57.04,,,
1318.631,-57.64,,,
1318.651,-58.3,,,
1318.671,-57.19,,,
1318.691,-56.82,,,
1318.711,-57.49,,,
1318.731,-57.15,,,
1318.751,-56.6,,,
1318.771,-56.39,,,
1318.791,-56.86,,,
1318.811,-57.02,,,
1318.831,-56.38,,,
1318.851,-56.46,,,
1318.871,-56.79,,,
1318.891,-57,,,
1318.911,-56.47,,,
1318.931,-56.55,,,
1318.951,-56.97,,,
1318.971,-57.03,,,
1318.991,-56.4,,,
1319.011,-56.44,,,
1319.031,-57.05,,,
1319.051,-56.79,,,
1319.071,-56.43,,,
1319.091,-56.32,,,
1319.111,-57.28,,,
1319.131,-56.8,,,
1319.151,-56.45,,,
1319.171,-56.48,,,
1319.191,-57,,,
1319.211,-56.77,,,
1319.231,-56.65,,,
1319.251,-56.97,,,
1319.271,-57.01,,,
1319.291,-57.2,,,
1319.311,-56.64,,,
1319.331,-57.04,,,
1319.351,-57.25,,,
1319.371,-57.27,,,
1319.391,-56.75,,,
1319.411,-57.31,,,
1319.431,-57.26,,,
1319.451,-57.28,,,
1319.471,-56.61,,,
1319.491,-57.06,,,
1319.511,-57.05,,,
1319.531,-56.74,,,
1319.551,-56.26,,,
1319.571,-56.8,,,
1319.591,-56.71,,,
1319.611,-56.68,,,
1319.631,-56.14,,,
1319.651,-56.51,,,
1319.671,-56.52,,,
1319.691,-56.12,,,
1319.711,-56.34,,,
1319.731,-56.61,,,
1319.751,-56.58,,,
1319.771,-56.09,,,
1319.791,-56.31,,,
1319.811,-56.55,,,
1319.831,-56.37,,,
1319.851,-56,,,
1319.871,-55.99,,,
1319.891,-56.3,,,
1319.911,-56.22,,,
1319.931,-55.76,,,
1319.951,-55.9,,,
1319.971,-56.08,,,
1319.991,-56.06,,,
1320.011,-55.52,,,
1320.031,-55.94,,,
1320.051,-55.91,,,
1320.071,-55.93,,,
1320.091,-55.45,,,
1320.111,-55.77,,,
1320.131,-55.8,,,
1320.151,-55.64,,,
1320.171,-55.47,,,
1320.191,-55.8,,,
1320.211,-55.66,,,
1320.231,-55.36,,,
1320.251,-55.38,,,
1320.271,-55.55,,,
1320.291,-55.6,,,
1320.311,-55.24,,,
1320.331,-55.21,,,
1320.351,-55.42,,,
1320.371,-55.42,,,
1320.391,-55.07,,,
1320.411,-55.28,,,
1320.431,-55.37,,,
1320.451,-55.3,,,
1320.471,-55.26,,,
1320.491,-55.14,,,
1320.511,-55.53,,,
1320.531,-55.4,,,
1320.551,-55.12,,,
1320.571,-55.59,,,
1320.591,-55.63,,,
1320.611,-55.47,,,
1320.631,-55.09,,,
1320.651,-55.52,,,
1320.671,-55.46,,,
1320.691,-55.29,,,
1320.711,-55.5,,,
1320.731,-55.61,,,
1320.751,-55.55,,,
1320.771,-55.47,,,
1320.791,-55.75,,,
1320.811,-55.94,,,
1320.831,-55.8,,,
1320.851,-55.8,,,
1320.871,-56.17,,,
1320.891,-56.15,,,
1320.911,-56.1,,,
1320.931,-56.19,,,
1320.951,-56.43,,,
1320.971,-56.33,,,
1320.991,-56.49,,,
1321.011,-56.44,,,
1321.031,-56.69,,,
1321.051,-56.73,,,
1321.071,-56.85,,,
1321.091,-56.8,,,
1321.111,-57.06,,,
1321.131,-56.83,,,
1321.151,-56.94,,,
1321.172,-57.13,,,
1321.191,-57.56,,,
1321.211,-57.22,,,
1321.231,-57.3,,,
1321.251,-57.72,,,
1321.271,-57.97,,,
1321.292,-57.74,,,
1321.312,-58.06,,,
1321.331,-58.35,,,
1321.351,-57.94,,,
1321.371,-58.4,,,
1321.391,-58.32,,,
1321.411,-58.71,,,
1321.432,-58.56,,,
1321.452,-58.28,,,
1321.471,-58.72,,,
1321.491,-58.83,,,
1321.511,-58.33,,,
1321.531,-58.82,,,
1321.552,-58.85,,,
1321.572,-58.23,,,
1321.592,-58.21,,,
1321.611,-58.82,,,
1321.631,-58.6,,,
1321.651,-58.58,,,
1321.672,-58.88,,,
1321.692,-58.42,,,
1321.712,-58.3,,,
1321.732,-58.02,,,
1321.751,-58.52,,,
1321.771,-58.29,,,
1321.792,-58.63,,,
1321.812,-58.11,,,
1321.832,-58.48,,,
1321.852,-58.05,,,
1321.872,-58.23,,,
1321.891,-58.09,,,
1321.911,-58.07,,,
1321.932,-57.54,,,
1321.952,-58.13,,,
1321.972,-57.71,,,
1321.992,-57.95,,,
1322.012,-57.8,,,
1322.032,-57.59,,,
1322.052,-57.67,,,
1322.072,-57.57,,,
1322.092,-57.54,,,
1322.112,-57.41,,,
1322.132,-57.56,,,
1322.152,-57.41,,,
1322.172,-57.15,,,
1322.192,-57.41,,,
1322.212,-57.4,,,
1322.232,-57.1,,,
1322.252,-56.77,,,
1322.272,-56.78,,,
1322.292,-56.82,,,
1322.312,-56.35,,,
1322.332,-56.74,,,
1322.352,-56.52,,,
1322.372,-56.67,,,
1322.392,-56.18,,,
1322.412,-56.76,,,
1322.432,-56.57,,,
1322.452,-56.45,,,
1322.472,-56.09,,,
1322.492,-56.53,,,
1322.512,-56.65,,,
1322.532,-56.09,,,
1322.552,-56.33,,,
1322.572,-56.62,,,
1322.592,-56.54,,,
1322.612,-56.32,,,
1322.632,-56.34,,,
1322.652,-56.5,,,
1322.672,-56.56,,,
1322.692,-56.01,,,
1322.712,-56.72,,,
1322.732,-56.92,,,
1322.752,-56.75,,,
1322.772,-56.07,,,
1322.792,-56.54,,,
1322.812,-56.61,,,
1322.832,-56.54,,,
1322.852,-56.5,,,
1322.872,-56.75,,,
1322.892,-56.75,,,
1322.912,-56.68,,,
1322.932,-56.56,,,
1322.952,-57.07,,,
1322.972,-56.94,,,
1322.992,-56.66,,,
1323.012,-57.05,,,
1323.032,-57.24,,,
1323.052,-57.36,,,
1323.072,-57.15,,,
1323.092,-57.35,,,
1323.112,-57.5,,,
1323.132,-57.45,,,
1323.152,-57.52,,,
1323.172,-57.53,,,
1323.192,-57.88,,,
1323.212,-57.61,,,
1323.232,-57.7,,,
1323.252,-58.35,,,
1323.272,-58.51,,,
1323.292,-58.52,,,
1323.312,-58.5,,,
1323.332,-59.23,,,
1323.352,-58.63,,,
1323.372,-59.25,,,
1323.392,-58.69,,,
1323.412,-59.22,,,
1323.432,-58.76,,,
1323.452,-58.96,,,
1323.472,-59.06,,,
1323.492,-58.75,,,
1323.512,-58.92,,,
1323.532,-58.83,,,
1323.552,-58.72,,,
1323.572,-58.54,,,
1323.592,-58.47,,,
1323.612,-58.8,,,
1323.632,-58.97,,,
1323.652,-58.47,,,
1323.672,-59.3,,,
1323.692,-58.55,,,
1323.712,-58.55,,,
1323.732,-58.49,,,
1323.752,-58.92,,,
1323.772,-58.59,,,
1323.792,-58.7,,,
1323.812,-59.05,,,
1323.832,-58.47,,,
1323.852,-58.82,,,
1323.872,-58.69,,,
1323.892,-59.13,,,
1323.912,-58.49,,,
1323.932,-58.75,,,
1323.952,-58.73,,,
1323.972,-58.75,,,
1323.992,-58.64,,,
1324.012,-58.97,,,
1324.032,-58.91,,,
1324.052,-58.54,,,
1324.072,-58.68,,,
1324.092,-58.82,,,
1324.112,-59.04,,,
1324.132,-58.86,,,
1324.152,-59.29,,,
1324.172,-59.08,,,
1324.192,-59.34,,,
1324.212,-59.26,,,
1324.232,-59.18,,,
1324.252,-59.54,,,
1324.272,-59.64,,,
1324.292,-59.21,,,
1324.312,-58.71,,,
1324.332,-59.34,,,
1324.352,-59.25,,,
1324.372,-59.38,,,
1324.392,-58.91,,,
1324.412,-59.55,,,
1324.432,-59.5,,,
1324.452,-59.29,,,
1324.472,-59.56,,,
1324.492,-59.23,,,
1324.512,-59.54,,,
1324.532,-59.29,,,
1324.552,-59.83,,,
1324.572,-59.63,,,
1324.592,-59.72,,,
1324.612,-59.17,,,
1324.632,-59.35,,,
1324.652,-59.2,,,
1324.672,-59.61,,,
1324.692,-59.76,,,
1324.712,-59.47,,,
1324.732,-59.35,,,
1324.752,-59.46,,,
1324.772,-59.42,,,
1324.792,-59.25,,,
1324.812,-59.61,,,
1324.832,-59.07,,,
1324.852,-59.13,,,
1324.872,-58.69,,,
1324.892,-59.24,,,
1324.912,-58.6,,,
1324.932,-58.79,,,
1324.952,-58.9,,,
1324.972,-58.69,,,
1324.992,-58.71,,,
1325.012,-58.53,,,
1325.032,-58.69,,,
1325.052,-58.25,,,
1325.072,-58.64,,,
1325.092,-58.36,,,
1325.112,-58.67,,,
1325.132,-58.26,,,
1325.152,-58.21,,,
1325.172,-58.35,,,
1325.192,-58.03,,,
1325.212,-57.75,,,
1325.232,-57.89,,,
1325.252,-57.61,,,
1325.272,-57.84,,,
1325.292,-57.88,,,
1325.312,-57.8,,,
1325.332,-57.9,,,
1325.352,-57.87,,,
1325.372,-58.1,,,
1325.392,-57.92,,,
1325.412,-58.08,,,
1325.432,-57.99,,,
1325.452,-57.92,,,
1325.472,-58.5,,,
1325.492,-58.22,,,
1325.512,-58.53,,,
1325.532,-58.52,,,
1325.552,-59.08,,,
1325.572,-58.71,,,
1325.592,-58.82,,,
1325.612,-59.37,,,
1325.632,-58.98,,,
1325.652,-58.94,,,
1325.672,-58.77,,,
1325.692,-58.95,,,
1325.712,-58.97,,,
1325.732,-58.91,,,
1325.752,-58.96,,,
1325.772,-58.65,,,
1325.792,-58.71,,,
1325.812,-58.91,,,
1325.832,-59.54,,,
1325.852,-59.14,,,
1325.872,-58.93,,,
1325.892,-60.3,,,
1325.912,-60.53,,,
1325.932,-59.43,,,
1325.952,-59.89,,,
1325.972,-60.13,,,
1325.992,-59.91,,,
1326.012,-59.35,,,
1326.032,-60.19,,,
1326.052,-59.61,,,
1326.072,-59.84,,,
1326.092,-58.94,,,
1326.112,-59.24,,,
1326.132,-59.22,,,
1326.152,-58.1,,,
1326.172,-58.13,,,
1326.192,-58.97,,,
1326.212,-58.91,,,
1326.232,-58.44,,,
1326.252,-58.25,,,
1326.272,-58.4,,,
1326.292,-58.18,,,
1326.312,-57.71,,,
1326.332,-57.96,,,
1326.352,-58.76,,,
1326.372,-58.06,,,
1326.392,-57.47,,,
1326.412,-57.69,,,
1326.432,-58.37,,,
1326.452,-57.38,,,
1326.472,-57.34,,,
1326.492,-58.05,,,
1326.512,-58.24,,,
1326.532,-57.4,,,
1326.552,-57.46,,,
1326.572,-58.06,,,
1326.592,-58.03,,,
1326.612,-57.8,,,
1326.632,-57.99,,,
1326.652,-58.65,,,
1326.672,-58.64,,,
1326.692,-57.86,,,
1326.712,-58.68,,,
1326.732,-58.94,,,
1326.752,-58.33,,,
1326.772,-58.12,,,
1326.792,-58.94,,,
1326.812,-58.79,,,
1326.832,-57.96,,,
1326.852,-58.3,,,
1326.872,-58.07,,,
1326.892,-57.74,,,
1326.912,-57.19,,,
1326.932,-57.53,,,
1326.952,-58.4,,,
1326.972,-57.78,,,
1326.992,-57.47,,,
1327.012,-57.57,,,
1327.032,-58.61,,,
1327.052,-57.49,,,
1327.072,-57.48,,,
1327.092,-58.13,,,
1327.112,-58.58,,,
1327.132,-58.31,,,
1327.152,-58.47,,,
1327.172,-59.07,,,
1327.192,-59.39,,,
1327.212,-58.45,,,
1327.232,-58.59,,,
1327.252,-59.12,,,
1327.272,-59.5,,,
1327.292,-58.66,,,
1327.312,-59.68,,,
1327.332,-59.26,,,
1327.352,-58.51,,,
1327.372,-58.35,,,
1327.392,-59.28,,,
1327.412,-59.25,,,
1327.432,-58.46,,,
1327.452,-58.55,,,
1327.472,-58.9,,,
1327.492,-58.47,,,
1327.512,-58.1,,,
1327.532,-58.15,,,
1327.552,-59.05,,,
1327.572,-58.19,,,
1327.592,-57.64,,,
1327.612,-57.6,,,
1327.632,-58.52,,,
1327.652,-57.36,,,
1327.672,-57.32,,,
1327.692,-57.78,,,
1327.712,-57.79,,,
1327.732,-57.58,,,
1327.752,-57.69,,,
1327.772,-58.35,,,
1327.792,-58.21,,,
1327.812,-58.07,,,
1327.832,-57.96,,,
1327.852,-59.19,,,
1327.872,-58.91,,,
1327.892,-58.28,,,
1327.912,-59.58,,,
1327.932,-59.31,,,
1327.952,-58.38,,,
1327.972,-58.25,,,
1327.992,-59.19,,,
1328.012,-58.8,,,
1328.032,-58.09,,,
1328.052,-58.11,,,
1328.072,-58.91,,,
1328.092,-58.3,,,
1328.112,-57.7,,,
1328.132,-57.62,,,
1328.152,-58.67,,,
1328.172,-57.52,,,
1328.192,-57.35,,,
1328.212,-57.46,,,
1328.232,-58.47,,,
1328.252,-57.29,,,
1328.272,-57.51,,,
1328.292,-58.32,,,
1328.312,-58.25,,,
1328.332,-57.81,,,
1328.352,-58.02,,,
1328.372,-59.01,,,
1328.392,-58.51,,,
1328.412,-57.93,,,
1328.432,-58.47,,,
1328.452,-59.12,,,
1328.472,-58.88,,,
1328.492,-58.32,,,
1328.512,-59.41,,,
1328.532,-59.57,,,
1328.552,-58.32,,,
1328.572,-58.12,,,
1328.592,-59.39,,,
1328.612,-59.18,,,
1328.632,-58.18,,,
1328.652,-58.73,,,
1328.672,-59.23,,,
1328.692,-58.62,,,
1328.712,-58.1,,,
1328.732,-58.31,,,
1328.752,-59.1,,,
1328.772,-58.22,,,
1328.792,-57.76,,,
1328.812,-57.91,,,
1328.832,-58.47,,,
1328.852,-57.45,,,
1328.872,-57.3,,,
1328.892,-58.28,,,
1328.912,-58.13,,,
1328.932,-57.9,,,
1328.952,-57.77,,,
1328.972,-58.43,,,
1328.992,-58.64,,,
1329.012,-58.58,,,
1329.032,-58.76,,,
1329.052,-58.78,,,
1329.072,-58.93,,,
1329.092,-58.3,,,
1329.112,-59.39,,,
1329.132,-58.72,,,
1329.152,-58.63,,,
1329.172,-58.2,,,
1329.193,-59.02,,,
1329.212,-58.88,,,
1329.232,-58.41,,,
1329.252,-58.63,,,
1329.272,-58.18,,,
1329.292,-58.29,,,
1329.313,-58.17,,,
1329.333,-57.95,,,
1329.352,-58.23,,,
1329.372,-58.1,,,
1329.392,-58.06,,,
1329.412,-58.16,,,
1329.432,-58.46,,,
1329.453,-58.4,,,
1329.473,-58.13,,,
1329.492,-58.22,,,
1329.512,-58.04,,,
1329.532,-58.58,,,
1329.552,-58.41,,,
1329.573,-58.86,,,
1329.593,-58.5,,,
1329.613,-58.05,,,
1329.633,-58.31,,,
1329.652,-58.6,,,
1329.672,-58.12,,,
1329.693,-58.08,,,
1329.713,-58.36,,,
1329.733,-58.55,,,
1329.753,-58.36,,,
1329.773,-58.08,,,
1329.792,-58.62,,,
1329.813,-58.83,,,
1329.833,-58.21,,,
1329.853,-58.82,,,
1329.873,-59.64,,,
1329.893,-59.15,,,
1329.913,-58.44,,,
1329.932,-58.94,,,
1329.953,-59.9,,,
1329.973,-59.23,,,
1329.993,-57.96,,,
1330.013,-58.57,,,
1330.033,-59.72,,,
1330.053,-58.02,,,
1330.073,-58.26,,,
1330.093,-58.48,,,
1330.113,-58.45,,,
1330.133,-57.7,,,
1330.153,-57.99,,,
1330.173,-59.31,,,
1330.193,-58.51,,,
1330.213,-58.01,,,
1330.233,-59.05,,,
1330.253,-60.35,,,
1330.273,-59.46,,,
1330.293,-58.54,,,
1330.313,-60.27,,,
1330.333,-61.03,,,
1330.353,-59.57,,,
1330.373,-59.12,,,
1330.393,-60.78,,,
1330.413,-61.23,,,
1330.433,-58.88,,,
1330.453,-58.96,,,
1330.473,-60.39,,,
1330.493,-59,,,
1330.513,-58.07,,,
1330.533,-58.81,,,
1330.553,-59.19,,,
1330.573,-58.01,,,
1330.593,-58.07,,,
1330.613,-59.45,,,
1330.633,-58.62,,,
1330.653,-58.11,,,
1330.673,-58.2,,,
1330.693,-60.25,,,
1330.713,-59.34,,,
1330.733,-58.48,,,
1330.753,-59.35,,,
1330.773,-61.12,,,
1330.793,-59.68,,,
1330.813,-58.95,,,
1330.833,-60.72,,,
1330.853,-60.56,,,
1330.873,-59,,,
1330.893,-58.7,,,
1330.913,-60.27,,,
1330.933,-60.16,,,
1330.953,-58.35,,,
1330.973,-59.03,,,
1330.993,-59.85,,,
1331.013,-58.4,,,
1331.033,-58.28,,,
1331.053,-58.79,,,
1331.073,-59.59,,,
1331.093,-58.69,,,
1331.113,-58.85,,,
1331.133,-60.42,,,
1331.153,-59.56,,,
1331.173,-58.62,,,
1331.193,-58.93,,,
1331.213,-59.86,,,
1331.233,-58.68,,,
1331.253,-57.83,,,
1331.273,-58.37,,,
1331.293,-58.92,,,
1331.313,-58.01,,,
1331.333,-57.33,,,
1331.353,-58.63,,,
1331.373,-58.83,,,
1331.393,-57.47,,,
1331.413,-57.59,,,
1331.433,-58.74,,,
1331.453,-58.37,,,
1331.473,-58.15,,,
1331.493,-58.73,,,
1331.513,-59.34,,,
1331.533,-59.1,,,
1331.553,-58.44,,,
1331.573,-59.77,,,
1331.593,-59.58,,,
1331.613,-58.76,,,
1331.633,-58.81,,,
1331.653,-60.24,,,
1331.673,-59.05,,,
1331.693,-58.15,,,
1331.713,-58.54,,,
1331.733,-59.21,,,
1331.753,-58.07,,,
1331.773,-57.6,,,
1331.793,-58.87,,,
1331.813,-59.1,,,
1331.833,-57.97,,,
1331.853,-57.81,,,
1331.873,-59.28,,,
1331.893,-59.45,,,
1331.913,-58.27,,,
1331.933,-58.53,,,
1331.953,-59.61,,,
1331.973,-59.3,,,
1331.993,-58.45,,,
1332.013,-58.77,,,
1332.033,-59.89,,,
1332.053,-58.45,,,
1332.073,-58.27,,,
1332.093,-59.13,,,
1332.113,-58.59,,,
1332.133,-58.24,,,
1332.153,-57.88,,,
1332.173,-59.65,,,
1332.193,-58.65,,,
1332.213,-57.8,,,
1332.233,-59.11,,,
1332.253,-60.26,,,
1332.273,-59.22,,,
1332.293,-58.51,,,
1332.313,-60.38,,,
1332.333,-60.78,,,
1332.353,-58.83,,,
1332.373,-58.72,,,
1332.393,-60.28,,,
1332.413,-59.14,,,
1332.433,-58.19,,,
1332.453,-58.45,,,
1332.473,-59.51,,,
1332.493,-58.28,,,
1332.513,-57.51,,,
1332.533,-58.09,,,
1332.553,-58.41,,,
1332.573,-57.43,,,
1332.593,-57.34,,,
1332.613,-58.57,,,
1332.633,-58.06,,,
1332.653,-57.48,,,
1332.673,-58.2,,,
1332.693,-59.92,,,
1332.713,-58.95,,,
1332.733,-58.47,,,
1332.753,-59.71,,,
1332.773,-59.87,,,
1332.793,-58.32,,,
1332.813,-58.25,,,
1332.833,-59.57,,,
1332.853,-58.69,,,
1332.873,-57.81,,,
1332.893,-57.73,,,
1332.913,-58.35,,,
1332.933,-57.58,,,
1332.953,-56.89,,,
1332.973,-57.42,,,
1332.993,-57.87,,,
1333.013,-57.15,,,
1333.033,-56.88,,,
1333.053,-57.97,,,
1333.073,-57.81,,,
1333.093,-57.33,,,
1333.113,-57.81,,,
1333.133,-58.96,,,
1333.153,-58.19,,,
1333.173,-57.67,,,
1333.193,-59.13,,,
1333.213,-59.09,,,
1333.233,-57.67,,,
1333.253,-57.78,,,
1333.273,-58.77,,,
1333.293,-58.1,,,
1333.313,-56.99,,,
1333.333,-57.16,,,
1333.353,-58.01,,,
1333.373,-57.04,,,
1333.393,-56.62,,,
1333.413,-57.53,,,
1333.433,-57.7,,,
1333.453,-56.84,,,
1333.473,-56.91,,,
1333.493,-57.77,,,
1333.513,-57.55,,,
1333.533,-57.22,,,
1333.553,-57.66,,,
1333.573,-58.73,,,
1333.593,-57.75,,,
1333.613,-57.36,,,
1333.633,-58.49,,,
1333.653,-58.37,,,
1333.673,-57.2,,,
1333.693,-56.94,,,
1333.713,-57.63,,,
1333.733,-57.4,,,
1333.753,-56.69,,,
1333.773,-57.36,,,
1333.793,-57.76,,,
1333.813,-56.94,,,
1333.833,-57.32,,,
1333.853,-57.81,,,
1333.873,-58.04,,,
1333.893,-57.23,,,
1333.913,-57.61,,,
1333.933,-58.86,,,
1333.953,-57.75,,,
1333.973,-57.61,,,
1333.993,-57.76,,,
1334.013,-58.49,,,
1334.033,-57.69,,,
1334.053,-57.22,,,
1334.073,-58.41,,,
1334.093,-57.97,,,
1334.113,-57.11,,,
1334.133,-57.63,,,
1334.153,-58.19,,,
1334.173,-57.54,,,
1334.193,-57.07,,,
1334.213,-58.07,,,
1334.233,-58.26,,,
1334.253,-57.08,,,
1334.273,-57.14,,,
1334.293,-58.16,,,
1334.313,-57.85,,,
1334.333,-57.41,,,
1334.353,-57.48,,,
1334.373,-58.6,,,
1334.393,-57.68,,,
1334.413,-57.38,,,
1334.433,-58.11,,,
1334.453,-58.3,,,
1334.473,-57.38,,,
1334.493,-57.88,,,
1334.513,-58.41,,,
1334.533,-57.89,,,
1334.553,-57.46,,,
1334.573,-57.83,,,
1334.593,-57.98,,,
1334.613,-57.21,,,
1334.633,-57.09,,,
1334.653,-57.75,,,
1334.673,-57.83,,,
1334.693,-57.14,,,
1334.713,-57.9,,,
1334.733,-58.32,,,
1334.753,-57.38,,,
1334.773,-57.35,,,
1334.793,-58.21,,,
1334.813,-58.16,,,
1334.833,-57.49,,,
1334.853,-57.4,,,
1334.873,-58.54,,,
1334.893,-57.92,,,
1334.913,-57.13,,,
1334.933,-57.81,,,
1334.953,-57.79,,,
1334.973,-57.45,,,
1334.993,-57.46,,,
1335.013,-58.12,,,
1335.033,-58.14,,,
1335.053,-57.22,,,
1335.073,-58.15,,,
1335.093,-58.89,,,
1335.113,-58.16,,,
1335.133,-57.62,,,
1335.153,-58.64,,,
1335.173,-58.89,,,
1335.193,-57.69,,,
1335.213,-57.48,,,
1335.233,-58.71,,,
1335.253,-58.35,,,
1335.273,-57.57,,,
1335.293,-57.96,,,
1335.313,-58.26,,,
1335.333,-57.71,,,
1335.353,-57.27,,,
1335.373,-58.34,,,
1335.393,-58.32,,,
1335.413,-57.39,,,
1335.433,-57.79,,,
1335.453,-58.76,,,
1335.473,-57.86,,,
1335.493,-57.43,,,
1335.513,-58.48,,,
1335.533,-58.08,,,
1335.553,-57.63,,,
1335.573,-57.58,,,
1335.593,-58.24,,,
1335.613,-58.3,,,
1335.633,-57.41,,,
1335.653,-58.06,,,
1335.673,-58.95,,,
1335.693,-57.9,,,
1335.713,-57.7,,,
1335.733,-58.78,,,
1335.753,-58.75,,,
1335.773,-57.7,,,
1335.793,-57.67,,,
1335.813,-58.54,,,
1335.833,-58.04,,,
1335.853,-57.2,,,
1335.873,-57.88,,,
1335.893,-58.02,,,
1335.913,-57.29,,,
1335.933,-57.05,,,
1335.953,-58.24,,,
1335.973,-57.98,,,
1335.993,-57.28,,,
1336.013,-58.09,,,
1336.033,-59.15,,,
1336.053,-58.24,,,
1336.073,-57.74,,,
1336.093,-58.24,,,
1336.113,-58.99,,,
1336.133,-57.65,,,
1336.153,-57.39,,,
1336.173,-58.47,,,
1336.193,-57.89,,,
1336.213,-57.07,,,
1336.233,-57.66,,,
1336.253,-57.69,,,
1336.273,-57.49,,,
1336.293,-57.07,,,
1336.313,-58.03,,,
1336.333,-58.58,,,
1336.353,-57.63,,,
1336.373,-58,,,
1336.393,-59.24,,,
1336.413,-58.45,,,
1336.433,-57.87,,,
1336.453,-58.54,,,
1336.473,-58.73,,,
1336.493,-57.64,,,
1336.513,-58.05,,,
1336.533,-58.71,,,
1336.553,-58.15,,,
1336.573,-57.57,,,
1336.593,-58.13,,,
1336.613,-59.26,,,
1336.633,-58.28,,,
1336.653,-58.33,,,
1336.673,-59.34,,,
1336.693,-59.36,,,
1336.713,-58.25,,,
1336.733,-58.54,,,
1336.753,-59.58,,,
1336.773,-58.92,,,
1336.793,-58.07,,,
1336.813,-58.92,,,
1336.833,-59.31,,,
1336.853,-58.34,,,
1336.873,-58.18,,,
1336.893,-58.98,,,
1336.913,-59.59,,,
1336.933,-58.1,,,
1336.953,-58.87,,,
1336.973,-59.8,,,
1336.993,-58.59,,,
1337.013,-58.39,,,
1337.033,-59.21,,,
1337.053,-59.4,,,
1337.073,-58.79,,,
1337.093,-58.46,,,
1337.113,-59.62,,,
1337.133,-58.94,,,
1337.153,-57.86,,,
1337.173,-58.61,,,
1337.193,-59,,,
1337.214,-58.5,,,
1337.233,-58.4,,,
1337.253,-59.12,,,
1337.273,-59.43,,,
1337.293,-58.76,,,
1337.313,-58.85,,,
1337.333,-59.61,,,
1337.354,-58.9,,,
1337.374,-58.15,,,
1337.393,-59.1,,,
1337.413,-58.57,,,
1337.433,-57.93,,,
1337.453,-58.06,,,
1337.474,-58.79,,,
1337.494,-58.69,,,
1337.514,-57.84,,,
1337.533,-58.73,,,
1337.553,-59.66,,,
1337.573,-58.5,,,
1337.594,-58.6,,,
1337.614,-59.75,,,
1337.634,-59.33,,,
1337.654,-58.26,,,
1337.673,-58.38,,,
1337.693,-59.77,,,
1337.714,-58.54,,,
1337.734,-57.92,,,
1337.754,-58.61,,,
1337.774,-58.74,,,
1337.794,-58.1,,,
1337.813,-57.77,,,
1337.833,-58.35,,,
1337.854,-58.39,,,
1337.874,-57.56,,,
1337.894,-58.21,,,
1337.914,-58.78,,,
1337.934,-58.11,,,
1337.953,-58.21,,,
1337.974,-58.92,,,
1337.994,-59.22,,,
1338.014,-58.18,,,
1338.034,-58.41,,,
1338.054,-59.2,,,
1338.074,-58.56,,,
1338.094,-57.57,,,
1338.114,-58.42,,,
1338.134,-58.38,,,
1338.154,-57.74,,,
1338.174,-58.25,,,
1338.194,-58.96,,,
1338.214,-58.89,,,
1338.234,-58.41,,,
1338.254,-58.93,,,
1338.274,-59.46,,,
1338.294,-58.66,,,
1338.314,-57.99,,,
1338.334,-58.72,,,
1338.354,-58.53,,,
1338.374,-57.77,,,
1338.394,-58.5,,,
1338.414,-58.74,,,
1338.434,-58.57,,,
1338.454,-58.13,,,
1338.474,-58.99,,,
1338.494,-59.25,,,
1338.514,-58.21,,,
1338.534,-58.27,,,
1338.554,-59.88,,,
1338.574,-59.17,,,
1338.594,-58.25,,,
1338.614,-58.54,,,
1338.634,-59.46,,,
1338.654,-58.75,,,
1338.674,-58.01,,,
1338.694,-58.81,,,
1338.714,-58.81,,,
1338.734,-57.82,,,
1338.754,-58.55,,,
1338.774,-58.84,,,
1338.794,-58.87,,,
1338.814,-58.83,,,
1338.834,-59.25,,,
1338.854,-60.41,,,
1338.874,-59.21,,,
1338.894,-59.26,,,
1338.914,-59.68,,,
1338.934,-59.06,,,
1338.954,-58.61,,,
1338.974,-58.67,,,
1338.994,-58.88,,,
1339.014,-58.18,,,
1339.034,-58.31,,,
1339.054,-58.51,,,
1339.074,-58.7,,,
1339.094,-58.29,,,
1339.114,-59.3,,,
1339.134,-60.18,,,
1339.154,-59.69,,,
1339.174,-59.06,,,
1339.194,-59.09,,,
1339.214,-59.13,,,
1339.234,-58.78,,,
1339.254,-58.52,,,
1339.274,-58.53,,,
1339.294,-58.39,,,
1339.314,-58.81,,,
1339.334,-59.53,,,
1339.354,-59.86,,,
1339.374,-59.34,,,
1339.394,-59.27,,,
1339.414,-58.98,,,
1339.434,-59.38,,,
1339.454,-58.7,,,
1339.474,-58.77,,,
1339.494,-59.1,,,
1339.514,-58.91,,,
1339.534,-59.2,,,
1339.554,-58.84,,,
1339.574,-58.62,,,
1339.594,-59.17,,,
1339.614,-58.95,,,
1339.634,-59.1,,,
1339.654,-59,,,
1339.674,-58.55,,,
1339.694,-58.49,,,
1339.714,-58.99,,,
1339.734,-58.3,,,
1339.754,-58.98,,,
1339.774,-58.71,,,
1339.794,-58.33,,,
1339.814,-58.87,,,
1339.834,-58.74,,,
1339.854,-58.5,,,
1339.874,-58.43,,,
1339.894,-58.91,,,
1339.914,-58.79,,,
1339.934,-58.79,,,
1339.954,-58.46,,,
1339.974,-58.48,,,
1339.994,-58.99,,,
1340.014,-58.55,,,
1340.034,-58.99,,,
1340.054,-59,,,
1340.074,-58.81,,,
1340.094,-58.49,,,
1340.114,-58.44,,,
1340.134,-57.8,,,
1340.154,-58.05,,,
1340.174,-58.32,,,
1340.194,-57.87,,,
1340.214,-57.97,,,
1340.234,-57.58,,,
1340.254,-57.96,,,
1340.274,-58.5,,,
1340.294,-57.89,,,
1340.314,-58.13,,,
1340.334,-58.08,,,
1340.354,-57.93,,,
1340.374,-57.79,,,
1340.394,-58.43,,,
1340.414,-58.38,,,
1340.434,-58.27,,,
1340.454,-58.51,,,
1340.474,-58.2,,,
1340.494,-58.76,,,
1340.514,-57.83,,,
1340.534,-58.3,,,
1340.554,-58.51,,,
1340.574,-58.16,,,
1340.594,-58.22,,,
1340.614,-58.18,,,
1340.634,-57.7,,,
1340.654,-57.78,,,
1340.674,-58,,,
1340.694,-57.72,,,
1340.714,-58.32,,,
1340.734,-58.47,,,
1340.754,-57.97,,,
1340.774,-58.38,,,
1340.794,-58.55,,,
1340.814,-58.38,,,
1340.834,-58.3,,,
1340.854,-58.6,,,
1340.874,-58.4,,,
1340.894,-57.76,,,
1340.914,-57.76,,,
1340.934,-57.84,,,
1340.954,-57.67,,,
1340.974,-57.62,,,
1340.994,-57.99,,,
1341.014,-58.02,,,
1341.034,-57.47,,,
1341.054,-57.7,,,
1341.074,-58.39,,,
1341.094,-57.87,,,
1341.114,-57.82,,,
1341.134,-57.96,,,
1341.154,-58.16,,,
1341.174,-57.61,,,
1341.194,-57.88,,,
1341.214,-59.41,,,
1341.234,-58.75,,,
1341.254,-58.21,,,
1341.274,-59.32,,,
1341.294,-59.45,,,
1341.314,-58.25,,,
1341.334,-58.41,,,
1341.354,-58.89,,,
1341.374,-58.15,,,
1341.394,-57.62,,,
1341.414,-58.16,,,
1341.434,-58.23,,,
1341.454,-58.02,,,
1341.474,-57.9,,,
1341.494,-59.05,,,
1341.514,-58.7,,,
1341.534,-57.69,,,
1341.554,-58.62,,,
1341.574,-58.65,,,
1341.594,-57.53,,,
1341.614,-57.49,,,
1341.634,-58.79,,,
1341.654,-58.25,,,
1341.674,-58.19,,,
1341.694,-59.38,,,
1341.714,-59.25,,,
1341.734,-58.59,,,
1341.754,-58.59,,,
1341.774,-58.97,,,
1341.794,-58.7,,,
1341.814,-57.93,,,
1341.834,-57.98,,,
1341.854,-58.17,,,
1341.874,-57.74,,,
1341.894,-57.84,,,
1341.914,-59.09,,,
1341.934,-59.04,,,
1341.954,-59.02,,,
1341.974,-59.56,,,
1341.994,-59.51,,,
1342.014,-59.32,,,
1342.034,-59.54,,,
1342.054,-59.32,,,
1342.074,-59.06,,,
1342.094,-58.95,,,
1342.114,-59.14,,,
1342.134,-59.24,,,
1342.154,-58.98,,,
1342.174,-59.34,,,
1342.194,-59.39,,,
1342.214,-59.44,,,
1342.234,-59.18,,,
1342.254,-58.9,,,
1342.274,-58.8,,,
1342.294,-59.79,,,
1342.314,-59.2,,,
1342.334,-58.85,,,
1342.354,-59.34,,,
1342.374,-58.99,,,
1342.394,-59.39,,,
1342.414,-59.93,,,
1342.434,-59.75,,,
1342.454,-59.69,,,
1342.474,-59.97,,,
1342.494,-59.6,,,
1342.514,-60.13,,,
1342.534,-60.2,,,
1342.554,-59.7,,,
1342.574,-59.53,,,
1342.594,-60.46,,,
1342.614,-59.83,,,
1342.634,-60.25,,,
1342.654,-59.98,,,
1342.674,-59.51,,,
1342.694,-59.32,,,
1342.714,-59.35,,,
1342.734,-58.99,,,
1342.754,-59.41,,,
1342.774,-59.27,,,
1342.794,-59.09,,,
1342.814,-59.64,,,
1342.834,-59.99,,,
1342.854,-59.86,,,
1342.874,-60.17,,,
1342.894,-60.39,,,
1342.914,-60.47,,,
1342.934,-60.02,,,
1342.954,-60.13,,,
1342.974,-60.42,,,
1342.994,-58.84,,,
1343.014,-59.04,,,
1343.034,-59.6,,,
1343.054,-58.84,,,
1343.074,-58.42,,,
1343.094,-59.04,,,
1343.114,-58.83,,,
1343.134,-58.59,,,
1343.154,-58.79,,,
1343.174,-59.82,,,
1343.194,-59.44,,,
1343.214,-58.41,,,
1343.234,-59.26,,,
1343.254,-59.98,,,
1343.274,-58.38,,,
1343.294,-58.16,,,
1343.314,-59.93,,,
1343.334,-59.08,,,
1343.354,-59.06,,,
1343.374,-59.61,,,
1343.394,-59.72,,,
1343.414,-58.33,,,
1343.434,-58.41,,,
1343.454,-59.13,,,
1343.474,-58.29,,,
1343.494,-57.72,,,
1343.514,-57.88,,,
1343.534,-58.68,,,
1343.554,-58.42,,,
1343.574,-58.3,,,
1343.594,-59.12,,,
1343.614,-59.01,,,
1343.634,-58.41,,,
1343.654,-59.16,,,
1343.674,-59.35,,,
1343.694,-58.11,,,
1343.714,-58.07,,,
1343.734,-59.45,,,
1343.754,-59.06,,,
1343.774,-58.35,,,
1343.794,-59.57,,,
1343.814,-59.44,,,
1343.834,-58.02,,,
1343.854,-58.54,,,
1343.874,-58.79,,,
1343.894,-58.22,,,
1343.914,-57.37,,,
1343.934,-57.65,,,
1343.954,-57.9,,,
1343.974,-57.78,,,
1343.994,-57.96,,,
1344.014,-58.57,,,
1344.034,-58.85,,,
1344.054,-58.3,,,
1344.074,-58.98,,,
1344.094,-59.16,,,
1344.114,-58.38,,,
1344.134,-58.81,,,
1344.154,-59.47,,,
1344.174,-58.18,,,
1344.194,-57.97,,,
1344.214,-58.82,,,
1344.234,-58.79,,,
1344.254,-57.9,,,
1344.274,-58.51,,,
1344.294,-58.42,,,
1344.314,-57.83,,,
1344.334,-57.37,,,
1344.354,-57.75,,,
1344.374,-57.82,,,
1344.394,-57.7,,,
1344.414,-58.3,,,
1344.434,-58.64,,,
1344.454,-58.87,,,
1344.474,-58.72,,,
1344.494,-59.76,,,
1344.514,-59.56,,,
1344.534,-58.41,,,
1344.554,-58.56,,,
1344.574,-59.92,,,
1344.594,-58.42,,,
1344.614,-58.15,,,
1344.634,-59.1,,,
1344.654,-59.13,,,
1344.674,-57.9,,,
1344.694,-58.78,,,
1344.714,-59.3,,,
1344.734,-58,,,
1344.754,-57.7,,,
1344.774,-57.94,,,
1344.794,-57.9,,,
1344.814,-57.64,,,
1344.834,-58.2,,,
1344.854,-58.56,,,
1344.874,-58.14,,,
1344.894,-58.1,,,
1344.914,-59.17,,,
1344.934,-59.03,,,
1344.954,-58.51,,,
1344.974,-58.58,,,
1344.994,-59.19,,,
1345.014,-57.94,,,
1345.034,-57.95,,,
1345.054,-58.8,,,
1345.074,-58.69,,,
1345.094,-57.92,,,
1345.115,-58.49,,,
1345.134,-58.74,,,
1345.154,-57.72,,,
1345.174,-58.15,,,
1345.194,-58.66,,,
1345.214,-58.29,,,
1345.234,-57.88,,,
1345.255,-58.63,,,
1345.274,-59.1,,,
1345.294,-58.91,,,
1345.314,-59.03,,,
1345.334,-60.07,,,
1345.354,-60.07,,,
1345.375,-59.39,,,
1345.395,-59.2,,,
1345.414,-59.85,,,
1345.434,-58.55,,,
1345.454,-58.4,,,
1345.474,-59.37,,,
1345.495,-58.51,,,
1345.515,-58.21,,,
1345.535,-58.84,,,
1345.554,-58.82,,,
1345.574,-57.82,,,
1345.594,-58.33,,,
1345.615,-59.28,,,
1345.635,-58.09,,,
1345.655,-58.26,,,
1345.675,-59.62,,,
1345.694,-59.62,,,
1345.714,-58.66,,,
1345.734,-59.27,,,
1345.755,-61.07,,,
1345.775,-59.3,,,
1345.795,-59.09,,,
1345.815,-60.3,,,
1345.835,-60.2,,,
1345.854,-59.2,,,
1345.875,-59.51,,,
1345.895,-60.69,,,
1345.915,-59.06,,,
1345.935,-58.63,,,
1345.955,-59.84,,,
1345.975,-59.53,,,
1345.995,-58.68,,,
1346.015,-60.05,,,
1346.035,-61.15,,,
1346.055,-59.56,,,
1346.075,-59.43,,,
1346.095,-61.29,,,
1346.115,-59.58,,,
1346.135,-59.32,,,
1346.155,-59.85,,,
1346.175,-60.93,,,
1346.195,-59.22,,,
1346.215,-59.55,,,
1346.235,-61.14,,,
1346.255,-59.84,,,
1346.275,-58.75,,,
1346.295,-59.21,,,
1346.315,-59.72,,,
1346.335,-58.19,,,
1346.355,-57.99,,,
1346.375,-59.61,,,
1346.395,-58.76,,,
1346.415,-58.3,,,
1346.435,-59.25,,,
1346.455,-59.62,,,
1346.475,-58.46,,,
1346.495,-58.67,,,
1346.515,-59.9,,,
1346.535,-58.42,,,
1346.555,-58.63,,,
1346.575,-60.8,,,
1346.595,-59.68,,,
1346.615,-58.65,,,
1346.635,-58.99,,,
1346.655,-60.12,,,
1346.675,-58.17,,,
1346.695,-58.36,,,
1346.715,-58.79,,,
1346.735,-58.19,,,
1346.755,-57.79,,,
1346.775,-58.95,,,
1346.795,-59.26,,,
1346.815,-58.16,,,
1346.835,-58.18,,,
1346.855,-59.07,,,
1346.875,-58.96,,,
1346.895,-58.38,,,
1346.915,-58.99,,,
1346.935,-59.57,,,
1346.955,-58.28,,,
1346.975,-58.54,,,
1346.995,-59.58,,,
1347.015,-58.55,,,
1347.035,-57.9,,,
1347.055,-58.42,,,
1347.075,-58.68,,,
1347.095,-57.67,,,
1347.115,-57.9,,,
1347.135,-58.97,,,
1347.155,-57.97,,,
1347.175,-57.76,,,
1347.195,-58.31,,,
1347.215,-58.54,,,
1347.235,-57.78,,,
1347.255,-58.26,,,
1347.275,-59.03,,,
1347.295,-58.75,,,
1347.315,-58.56,,,
1347.335,-59.51,,,
1347.355,-59.14,,,
1347.375,-58.42,,,
1347.395,-58.43,,,
1347.415,-59.53,,,
1347.435,-58.72,,,
1347.455,-58.26,,,
1347.475,-59.06,,,
1347.495,-59.14,,,
1347.515,-58.32,,,
1347.535,-59.19,,,
1347.555,-59.29,,,
1347.575,-58.25,,,
1347.595,-58.33,,,
1347.615,-60.22,,,
1347.635,-58.78,,,
1347.655,-58.89,,,
1347.675,-59.15,,,
1347.695,-59.93,,,
1347.715,-58.92,,,
1347.735,-59.42,,,
1347.755,-60.76,,,
1347.775,-58.99,,,
1347.795,-58.77,,,
1347.815,-60.03,,,
1347.835,-60.45,,,
1347.855,-58.65,,,
1347.875,-58.89,,,
1347.895,-59.48,,,
1347.915,-58.36,,,
1347.935,-58.16,,,
1347.955,-60.16,,,
1347.975,-59.58,,,
1347.995,-58.59,,,
1348.015,-59.17,,,
1348.035,-59.72,,,
1348.055,-58.26,,,
1348.075,-58.67,,,
1348.095,-60.34,,,
1348.115,-59.15,,,
1348.135,-58.94,,,
1348.155,-60.07,,,
1348.175,-61.78,,,
1348.195,-59.4,,,
1348.215,-59.56,,,
1348.235,-60.37,,,
1348.255,-59.46,,,
1348.275,-58.75,,,
1348.295,-59.93,,,
1348.315,-59.89,,,
1348.335,-58.55,,,
1348.355,-59.1,,,
1348.375,-59.69,,,
1348.395,-58.88,,,
1348.415,-58.93,,,
1348.435,-60.23,,,
1348.455,-59.85,,,
1348.475,-58.69,,,
1348.495,-60.03,,,
1348.515,-59.81,,,
1348.535,-58.62,,,
1348.555,-58.8,,,
1348.575,-60.03,,,
1348.595,-58.54,,,
1348.615,-58.52,,,
1348.635,-59.15,,,
1348.655,-59.44,,,
1348.675,-58.09,,,
1348.695,-58.76,,,
1348.715,-59.23,,,
1348.735,-58.15,,,
1348.755,-58.15,,,
1348.775,-59.79,,,
1348.795,-59.33,,,
1348.815,-58.07,,,
1348.835,-58.89,,,
1348.855,-59.94,,,
1348.875,-58.68,,,
1348.895,-58.83,,,
1348.915,-60.8,,,
1348.935,-59.58,,,
1348.955,-58.39,,,
1348.975,-59.66,,,
1348.995,-59.93,,,
1349.015,-58.89,,,
1349.035,-59.02,,,
1349.055,-60.7,,,
1349.075,-59.02,,,
1349.095,-58.43,,,
1349.115,-59.66,,,
1349.135,-59.97,,,
1349.155,-58.32,,,
1349.175,-59.05,,,
1349.195,-60.06,,,
1349.215,-58.62,,,
1349.235,-58.4,,,
1349.255,-59.49,,,
1349.275,-58.6,,,
1349.295,-57.72,,,
1349.315,-58.89,,,
1349.335,-59.26,,,
1349.355,-58.64,,,
1349.375,-59.1,,,
1349.395,-59.62,,,
1349.415,-58.18,,,
1349.435,-57.97,,,
1349.455,-58.22,,,
1349.475,-57.93,,,
1349.495,-57.6,,,
1349.515,-58.15,,,
1349.535,-59.19,,,
1349.555,-58.3,,,
1349.575,-58.29,,,
1349.595,-58.76,,,
1349.615,-58.54,,,
1349.635,-57.65,,,
1349.655,-58.82,,,
1349.675,-59.06,,,
1349.695,-58.68,,,
1349.715,-59.12,,,
1349.735,-59.99,,,
1349.755,-58.71,,,
1349.775,-58.32,,,
1349.795,-59.5,,,
1349.815,-59.44,,,
1349.835,-57.97,,,
1349.855,-58.64,,,
1349.875,-59.72,,,
1349.895,-58.04,,,
1349.915,-57.68,,,
1349.935,-58.25,,,
1349.955,-58.2,,,
1349.975,-57.35,,,
1349.995,-58.04,,,
1350.015,-59.12,,,
1350.035,-57.74,,,
1350.055,-57.46,,,
1350.075,-58.55,,,
1350.095,-58.41,,,
1350.115,-57.55,,,
1350.135,-58.52,,,
1350.155,-58.44,,,
1350.175,-57.32,,,
1350.195,-57.78,,,
1350.215,-59,,,
1350.235,-58,,,
1350.255,-57.87,,,
1350.275,-59.12,,,
1350.295,-58.97,,,
1350.315,-57.61,,,
1350.335,-58.51,,,
1350.355,-59.2,,,
1350.375,-57.89,,,
1350.395,-58.17,,,
1350.415,-58.91,,,
1350.435,-58.92,,,
1350.455,-58.27,,,
1350.475,-59.68,,,
1350.495,-59.74,,,
1350.515,-58.28,,,
1350.535,-58.25,,,
1350.555,-58.93,,,
1350.575,-58.42,,,
1350.595,-57.79,,,
1350.615,-59.47,,,
1350.635,-58.81,,,
1350.655,-57.84,,,
1350.675,-58.31,,,
1350.695,-58.93,,,
1350.715,-57.58,,,
1350.735,-57.56,,,
1350.755,-58.68,,,
1350.775,-57.67,,,
1350.795,-57.05,,,
1350.815,-58.24,,,
1350.835,-58.22,,,
1350.855,-57.2,,,
1350.875,-57.63,,,
1350.895,-58.7,,,
1350.915,-58.14,,,
1350.935,-57.81,,,
1350.955,-58.82,,,
1350.975,-58.5,,,
1350.995,-57.37,,,
1351.015,-57.92,,,
1351.035,-58.78,,,
1351.055,-57.92,,,
1351.075,-57.61,,,
1351.095,-58.8,,,
1351.115,-57.8,,,
1351.135,-57.28,,,
1351.155,-58.16,,,
1351.175,-58.38,,,
1351.195,-57.29,,,
1351.215,-57.7,,,
1351.235,-58.7,,,
1351.255,-57.54,,,
1351.275,-57.41,,,
1351.295,-58.23,,,
1351.315,-57.81,,,
1351.335,-56.95,,,
1351.355,-57.58,,,
1351.375,-58.43,,,
1351.395,-57.47,,,
1351.415,-57.29,,,
1351.435,-58.5,,,
1351.455,-57.48,,,
1351.475,-56.97,,,
1351.495,-57.34,,,
1351.515,-57.95,,,
1351.535,-57.22,,,
1351.555,-57.46,,,
1351.575,-58.76,,,
1351.595,-58.02,,,
1351.615,-57.53,,,
1351.635,-58.1,,,
1351.655,-58.16,,,
1351.675,-57,,,
1351.695,-57.7,,,
1351.715,-58.91,,,
1351.735,-57.34,,,
1351.755,-57.24,,,
1351.775,-58.41,,,
1351.795,-57.7,,,
1351.815,-57.4,,,
1351.835,-58.46,,,
1351.855,-58.75,,,
1351.875,-57.11,,,
1351.895,-57.55,,,
1351.915,-58.06,,,
1351.935,-57.49,,,
1351.955,-57.05,,,
1351.975,-58.25,,,
1351.995,-58.28,,,
1352.015,-57.32,,,
1352.035,-57.8,,,
1352.055,-58.1,,,
1352.075,-57.31,,,
1352.095,-57.22,,,
1352.115,-58.26,,,
1352.135,-57.86,,,
1352.155,-57.44,,,
1352.175,-58.33,,,
1352.195,-57.97,,,
1352.215,-57.23,,,
1352.235,-58.19,,,
1352.255,-58.01,,,
1352.275,-57.69,,,
1352.295,-57.94,,,
1352.315,-59.02,,,
1352.335,-58.31,,,
1352.355,-57.34,,,
1352.375,-58.08,,,
1352.395,-58.23,,,
1352.415,-57.88,,,
1352.435,-58.37,,,
1352.455,-59.27,,,
1352.475,-58.71,,,
1352.495,-58.36,,,
1352.515,-59.09,,,
1352.535,-58.88,,,
1352.555,-58.39,,,
1352.575,-58.92,,,
1352.595,-59.21,,,
1352.615,-58.37,,,
1352.635,-58.65,,,
1352.655,-59.13,,,
1352.675,-58.58,,,
1352.695,-58.03,,,
1352.715,-58.83,,,
1352.735,-58.98,,,
1352.755,-58.58,,,
1352.775,-59.13,,,
1352.795,-59.03,,,
1352.815,-58.2,,,
1352.835,-57.66,,,
1352.855,-58.65,,,
1352.875,-58.3,,,
1352.895,-58.35,,,
1352.915,-58.98,,,
1352.935,-58.95,,,
1352.955,-58.42,,,
1352.975,-58.51,,,
1352.995,-58.46,,,
1353.015,-57.74,,,
1353.035,-58.52,,,
1353.055,-59.09,,,
1353.075,-58.9,,,
1353.095,-58.55,,,
1353.115,-58.99,,,
1353.135,-59.13,,,
1353.155,-57.89,,,
1353.175,-59.03,,,
1353.195,-59.66,,,
1353.215,-58.62,,,
1353.235,-58.77,,,
1353.255,-60.48,,,
1353.276,-59.42,,,
1353.295,-58.13,,,
1353.315,-58.98,,,
1353.335,-59.92,,,
1353.355,-58.34,,,
1353.375,-59.13,,,
1353.396,-60.07,,,
1353.416,-58.59,,,
1353.435,-57.69,,,
1353.455,-58.9,,,
1353.475,-58.5,,,
1353.495,-57.63,,,
1353.516,-58.54,,,
1353.536,-59.12,,,
1353.556,-57.82,,,
1353.576,-57.27,,,
1353.595,-58.02,,,
1353.615,-57.35,,,
1353.635,-57.31,,,
1353.656,-58.62,,,
1353.676,-58.57,,,
1353.696,-57.81,,,
1353.716,-58.57,,,
1353.735,-58.13,,,
1353.755,-57.33,,,
1353.776,-58.19,,,
1353.796,-58.92,,,
1353.816,-58.72,,,
1353.836,-58.32,,,
1353.856,-59.32,,,
1353.875,-58.65,,,
1353.896,-57.61,,,
1353.916,-58.64,,,
1353.936,-58.72,,,
1353.956,-58.07,,,
1353.976,-58.54,,,
1353.996,-59.89,,,
1354.016,-58.84,,,
1354.036,-58.2,,,
1354.056,-59.1,,,
1354.076,-58.88,,,
1354.096,-58.71,,,
1354.116,-59.24,,,
1354.136,-60.52,,,
1354.156,-58.97,,,
1354.176,-58.72,,,
1354.196,-59.24,,,
1354.216,-58.88,,,
1354.236,-58.39,,,
1354.256,-58.87,,,
1354.276,-58.61,,,
1354.296,-58.25,,,
1354.316,-58.26,,,
1354.336,-58.45,,,
1354.356,-58.28,,,
1354.376,-58.19,,,
1354.396,-58.84,,,
1354.416,-59.01,,,
1354.436,-58.16,,,
1354.456,-58.84,,,
1354.476,-59.43,,,
1354.496,-58.64,,,
1354.516,-58.91,,,
1354.536,-58.97,,,
1354.556,-59.23,,,
1354.576,-59.14,,,
1354.596,-59.22,,,
1354.616,-59.17,,,
1354.636,-58.47,,,
1354.656,-58.81,,,
1354.676,-58.81,,,
1354.696,-57.93,,,
1354.716,-58.48,,,
1354.736,-58.93,,,
1354.756,-58.3,,,
1354.776,-58.74,,,
1354.796,-58.98,,,
1354.816,-59.05,,,
1354.836,-58.3,,,
1354.856,-59.25,,,
1354.876,-59.17,,,
1354.896,-58.25,,,
1354.916,-58.93,,,
1354.936,-59.15,,,
1354.956,-58.84,,,
1354.976,-58.34,,,
1354.996,-59.29,,,
1355.016,-58.95,,,
1355.036,-58.25,,,
1355.056,-59.22,,,
1355.076,-59.16,,,
1355.096,-58.58,,,
1355.116,-58.78,,,
1355.136,-59.33,,,
1355.156,-58.67,,,
1355.176,-58.6,,,
1355.196,-59.49,,,
1355.216,-58.92,,,
1355.236,-58.39,,,
1355.256,-59.46,,,
1355.276,-59.14,,,
1355.296,-58.84,,,
1355.316,-59.16,,,
1355.336,-59.92,,,
1355.356,-59.13,,,
1355.376,-59.25,,,
1355.396,-59.31,,,
1355.416,-59.04,,,
1355.436,-58.78,,,
1355.456,-58.86,,,
1355.476,-59.28,,,
1355.496,-58.31,,,
1355.516,-59.32,,,
1355.536,-59.14,,,
1355.556,-58.44,,,
1355.576,-58.62,,,
1355.596,-59.15,,,
1355.616,-59.23,,,
1355.636,-58.68,,,
1355.656,-59.55,,,
1355.676,-59.22,,,
1355.696,-59.03,,,
1355.716,-59.19,,,
1355.736,-59.84,,,
1355.756,-59,,,
1355.776,-59.25,,,
1355.796,-59.15,,,
1355.816,-58.95,,,
1355.836,-58.96,,,
1355.856,-59.44,,,
1355.876,-59.17,,,
1355.896,-58.3,,,
1355.916,-59.23,,,
1355.936,-59.27,,,
1355.956,-58.96,,,
1355.976,-58.95,,,
1355.996,-59.38,,,
1356.016,-58.97,,,
1356.036,-58.79,,,
1356.056,-59.01,,,
1356.076,-59.27,,,
1356.096,-59.1,,,
1356.116,-58.83,,,
1356.136,-58.61,,,
1356.156,-58.35,,,
1356.176,-58.7,,,
1356.196,-58.76,,,
1356.216,-58.31,,,
1356.236,-58.12,,,
1356.256,-58.91,,,
1356.276,-58.22,,,
1356.296,-58.33,,,
1356.316,-58.96,,,
1356.336,-58.82,,,
1356.356,-58.07,,,
1356.376,-58.43,,,
1356.396,-59.07,,,
1356.416,-58.84,,,
1356.436,-58.61,,,
1356.456,-58.6,,,
1356.476,-58.97,,,
1356.496,-58.26,,,
1356.516,-58.69,,,
1356.536,-58.44,,,
1356.556,-58.18,,,
1356.576,-58.54,,,
1356.596,-58.34,,,
1356.616,-58.44,,,
1356.636,-58.56,,,
1356.656,-58.72,,,
1356.676,-58.42,,,
1356.696,-58.6,,,
1356.716,-58.93,,,
1356.736,-58.69,,,
1356.756,-58.37,,,
1356.776,-58.44,,,
1356.796,-58.7,,,
1356.816,-57.95,,,
1356.836,-57.92,,,
1356.856,-58.38,,,
1356.876,-58.47,,,
1356.896,-58.11,,,
1356.916,-58.25,,,
1356.936,-58.33,,,
1356.956,-58.11,,,
1356.976,-58,,,
1356.996,-58.59,,,
1357.016,-57.98,,,
1357.036,-58.11,,,
1357.056,-58.11,,,
1357.076,-57.77,,,
1357.096,-57.73,,,
1357.116,-58.07,,,
1357.136,-57.93,,,
1357.156,-57.61,,,
1357.176,-58.06,,,
1357.196,-58,,,
1357.216,-57.86,,,
1357.236,-58.03,,,
1357.256,-58.73,,,
1357.276,-58.42,,,
1357.296,-57.76,,,
1357.316,-58.07,,,
1357.336,-58.45,,,
1357.356,-57.67,,,
1357.376,-58.06,,,
1357.396,-58.06,,,
1357.416,-57.47,,,
1357.436,-57.53,,,
1357.456,-57.99,,,
1357.476,-58.04,,,
1357.496,-57.33,,,
1357.516,-58.15,,,
1357.536,-58.19,,,
1357.556,-57.75,,,
1357.576,-58.14,,,
1357.596,-58.43,,,
1357.616,-57.58,,,
1357.636,-58.15,,,
1357.656,-58.9,,,
1357.676,-58.12,,,
1357.696,-57.95,,,
1357.716,-58.39,,,
1357.736,-58.02,,,
1357.756,-57.23,,,
1357.776,-58.3,,,
1357.796,-58.74,,,
1357.816,-58.1,,,
1357.836,-57.73,,,
1357.856,-57.94,,,
1357.876,-57.81,,,
1357.896,-58.13,,,
1357.916,-58.56,,,
1357.936,-58.21,,,
1357.956,-58.06,,,
1357.976,-57.79,,,
1357.996,-57.9,,,
1358.016,-57.53,,,
1358.036,-58.37,,,
1358.056,-58.99,,,
1358.076,-58,,,
1358.096,-57.92,,,
1358.116,-58.3,,,
1358.136,-58.2,,,
1358.156,-58.06,,,
1358.176,-58.71,,,
1358.196,-58.65,,,
1358.216,-58.49,,,
1358.236,-58.5,,,
1358.256,-57.93,,,
1358.276,-58.09,,,
1358.296,-58.55,,,
1358.316,-58.46,,,
1358.336,-58.78,,,
1358.356,-58.53,,,
1358.376,-58.22,,,
1358.396,-58.2,,,
1358.416,-58.91,,,
1358.436,-59.26,,,
1358.456,-58.43,,,
1358.476,-59.04,,,
1358.496,-59.24,,,
1358.516,-59.01,,,
1358.536,-58.65,,,
1358.556,-58.75,,,
1358.576,-58.78,,,
1358.596,-58.92,,,
1358.616,-59.07,,,
1358.636,-58.58,,,
1358.656,-58.41,,,
1358.676,-58.71,,,
1358.696,-58.76,,,
1358.716,-58.19,,,
1358.736,-59.47,,,
1358.756,-59.41,,,
1358.776,-58.39,,,
1358.796,-58.42,,,
1358.816,-58.96,,,
1358.836,-58.97,,,
1358.856,-58.98,,,
1358.876,-58.71,,,
1358.896,-58.52,,,
1358.916,-58.51,,,
1358.936,-58.79,,,
1358.956,-59.19,,,
1358.976,-58.56,,,
1358.996,-59.01,,,
1359.016,-58.6,,,
1359.036,-58.28,,,
1359.056,-58.51,,,
1359.076,-58.72,,,
1359.096,-58.66,,,
1359.116,-58.53,,,
1359.136,-58.31,,,
1359.156,-58.28,,,
1359.176,-58.4,,,
1359.196,-58.97,,,
1359.216,-58.48,,,
1359.236,-58.15,,,
1359.256,-58.32,,,
1359.276,-58.15,,,
1359.296,-57.67,,,
1359.316,-57.61,,,
1359.336,-58.2,,,
1359.356,-58.22,,,
1359.376,-58.16,,,
1359.396,-58.1,,,
1359.416,-57.48,,,
1359.436,-57.62,,,
1359.456,-58.27,,,
1359.476,-57.98,,,
1359.496,-57.48,,,
1359.516,-57.74,,,
1359.536,-57.53,,,
1359.556,-57.45,,,
1359.576,-57.55,,,
1359.596,-57.77,,,
1359.616,-57.85,,,
1359.636,-57.82,,,
1359.656,-57.74,,,
1359.676,-57.84,,,
1359.696,-57.76,,,
1359.716,-57.85,,,
1359.736,-57.56,,,
1359.756,-57.29,,,
1359.776,-57.73,,,
1359.796,-57.65,,,
1359.816,-57.33,,,
1359.836,-57.29,,,
1359.856,-57.69,,,
1359.876,-57.74,,,
1359.896,-57.38,,,
1359.916,-57.54,,,
1359.936,-57.49,,,
1359.956,-57.32,,,
1359.976,-57.72,,,
1359.996,-57.94,,,
1360.016,-58.15,,,
1360.036,-58.12,,,
1360.056,-57.8,,,
1360.076,-57.78,,,
1360.096,-57.91,,,
1360.116,-58.48,,,
1360.136,-58.18,,,
1360.156,-57.91,,,
1360.176,-57.8,,,
1360.196,-57.93,,,
1360.216,-58.02,,,
1360.236,-57.74,,,
1360.256,-58.1,,,
1360.276,-58.59,,,
1360.296,-58.6,,,
1360.316,-58.36,,,
1360.336,-58.26,,,
1360.356,-58.4,,,
1360.376,-58.28,,,
1360.396,-58.73,,,
1360.416,-58.44,,,
1360.436,-58.38,,,
1360.456,-58.72,,,
1360.476,-58.53,,,
1360.496,-58.2,,,
1360.516,-58.57,,,
1360.536,-58.77,,,
1360.556,-58.54,,,
1360.576,-58.56,,,
1360.596,-58.44,,,
1360.616,-58.51,,,
1360.636,-58.93,,,
1360.656,-58.71,,,
1360.676,-58.15,,,
1360.696,-58.23,,,
1360.716,-58.34,,,
1360.736,-58.97,,,
1360.756,-58.66,,,
1360.776,-59.01,,,
1360.796,-58.9,,,
1360.816,-58.9,,,
1360.836,-59.71,,,
1360.856,-59.61,,,
1360.876,-58.76,,,
1360.896,-59.39,,,
1360.916,-59.39,,,
1360.936,-58.99,,,
1360.956,-58.97,,,
1360.976,-59.74,,,
1360.996,-58.08,,,
1361.016,-57.94,,,
1361.036,-59.54,,,
1361.056,-58.81,,,
1361.076,-58.21,,,
1361.096,-58.79,,,
1361.116,-58.84,,,
1361.136,-58.09,,,
1361.156,-59.11,,,
1361.176,-59.33,,,
1361.196,-58.11,,,
1361.216,-58.49,,,
1361.236,-59.59,,,
1361.256,-58.33,,,
1361.276,-58.02,,,
1361.297,-59.52,,,
1361.317,-59.1,,,
1361.336,-58,,,
1361.356,-58.55,,,
1361.376,-58.47,,,
1361.396,-58.25,,,
1361.417,-59.19,,,
1361.437,-59.35,,,
1361.457,-57.64,,,
1361.476,-57.95,,,
1361.496,-59.41,,,
1361.516,-58.09,,,
1361.536,-58.22,,,
1361.557,-59.59,,,
1361.577,-59.46,,,
1361.597,-58.38,,,
1361.616,-59.06,,,
1361.636,-58.62,,,
1361.656,-58.06,,,
1361.677,-58.89,,,
1361.697,-59.55,,,
1361.717,-57.75,,,
1361.737,-58,,,
1361.756,-59.09,,,
1361.776,-58.39,,,
1361.797,-58.15,,,
1361.817,-59.04,,,
1361.837,-57.59,,,
1361.857,-57.52,,,
1361.877,-58.85,,,
1361.896,-58.35,,,
1361.917,-57.85,,,
1361.937,-58.27,,,
1361.957,-57.71,,,
1361.977,-57.79,,,
1361.997,-59.27,,,
1362.017,-58.65,,,
1362.036,-57.65,,,
1362.057,-58.12,,,
1362.077,-58.64,,,
1362.097,-57.36,,,
1362.117,-57.41,,,
1362.137,-58.49,,,
1362.157,-57.66,,,
1362.177,-57.36,,,
1362.197,-58.4,,,
1362.217,-57.61,,,
1362.237,-57.1,,,
1362.257,-58.44,,,
1362.277,-58.37,,,
1362.297,-57.19,,,
1362.317,-57.7,,,
1362.337,-58.41,,,
1362.357,-57.77,,,
1362.377,-58.2,,,
1362.397,-58.92,,,
1362.417,-57.12,,,
1362.437,-57.46,,,
1362.457,-59.03,,,
1362.477,-57.89,,,
1362.497,-57.83,,,
1362.517,-58.73,,,
1362.537,-58.02,,,
1362.557,-56.97,,,
1362.577,-57.98,,,
1362.597,-58.1,,,
1362.617,-57.42,,,
1362.637,-58.06,,,
1362.657,-58.91,,,
1362.677,-57.39,,,
1362.697,-57.71,,,
1362.717,-59.18,,,
1362.737,-58.19,,,
1362.757,-57.76,,,
1362.777,-59.27,,,
1362.797,-57.99,,,
1362.817,-57.74,,,
1362.837,-59.58,,,
1362.857,-59.06,,,
1362.877,-57.86,,,
1362.897,-58.57,,,
1362.917,-58.24,,,
1362.937,-57.98,,,
1362.957,-59.24,,,
1362.977,-59.01,,,
1362.997,-57.91,,,
1363.017,-58.14,,,
1363.037,-58.95,,,
1363.057,-57.96,,,
1363.077,-58.33,,,
1363.097,-60.04,,,
1363.117,-59.55,,,
1363.137,-58.72,,,
1363.157,-59.89,,,
1363.177,-59.04,,,
1363.197,-58.72,,,
1363.217,-59.81,,,
1363.237,-60.26,,,
1363.257,-58.46,,,
1363.277,-58.75,,,
1363.297,-59.9,,,
1363.317,-58.78,,,
1363.337,-58.93,,,
1363.357,-59.42,,,
1363.377,-58.09,,,
1363.397,-58.09,,,
1363.417,-59.73,,,
1363.437,-59.04,,,
1363.457,-58.21,,,
1363.477,-58.87,,,
1363.497,-58.41,,,
1363.517,-57.99,,,
1363.537,-59.39,,,
1363.557,-59.73,,,
1363.577,-58.39,,,
1363.597,-58.71,,,
1363.617,-59.56,,,
1363.637,-58.09,,,
1363.657,-58.04,,,
1363.677,-59.7,,,
1363.697,-58.65,,,
1363.717,-58.35,,,
1363.737,-59.12,,,
1363.757,-58.01,,,
1363.777,-57.87,,,
1363.797,-59.28,,,
1363.817,-58.95,,,
1363.837,-57.55,,,
1363.857,-58.17,,,
1363.877,-58.21,,,
1363.897,-58.07,,,
1363.917,-58.77,,,
1363.937,-59.52,,,
1363.957,-57.87,,,
1363.977,-57.7,,,
1363.997,-58.98,,,
1364.017,-58.27,,,
1364.037,-58.45,,,
1364.057,-59.11,,,
1364.077,-58.18,,,
1364.097,-57.25,,,
1364.117,-58.19,,,
1364.137,-58.44,,,
1364.157,-57.74,,,
1364.177,-58.08,,,
1364.197,-59.21,,,
1364.217,-57.64,,,
1364.237,-57.37,,,
1364.257,-59.31,,,
1364.277,-58.31,,,
1364.297,-57.68,,,
1364.317,-58.34,,,
1364.337,-58.17,,,
1364.357,-57.92,,,
1364.377,-58.95,,,
1364.397,-58.86,,,
1364.417,-57.73,,,
1364.437,-58.17,,,
1364.457,-58.93,,,
1364.477,-58.03,,,
1364.497,-58.66,,,
1364.517,-59.65,,,
1364.537,-57.79,,,
1364.557,-57.69,,,
1364.577,-59.5,,,
1364.597,-58.49,,,
1364.617,-57.92,,,
1364.637,-59.36,,,
1364.657,-58.55,,,
1364.677,-57.83,,,
1364.697,-58.8,,,
1364.717,-59.08,,,
1364.737,-58.19,,,
1364.757,-59,,,
1364.777,-59.24,,,
1364.797,-57.91,,,
1364.817,-58.72,,,
1364.837,-59.66,,,
1364.857,-58.41,,,
1364.877,-58.2,,,
1364.897,-59.71,,,
1364.917,-58.3,,,
1364.937,-57.95,,,
1364.957,-59.45,,,
1364.977,-58.66,,,
1364.997,-58.04,,,
1365.017,-59.72,,,
1365.037,-59.06,,,
1365.057,-58.74,,,
1365.077,-59.9,,,
1365.097,-59.89,,,
1365.117,-58.45,,,
1365.137,-59.5,,,
1365.157,-60.79,,,
1365.177,-58.36,,,
1365.197,-58.58,,,
1365.217,-60.52,,,
1365.237,-59.05,,,
1365.257,-58.44,,,
1365.277,-60.05,,,
1365.297,-59.16,,,
1365.317,-58.74,,,
1365.337,-60.09,,,
1365.357,-59.41,,,
1365.377,-58.45,,,
1365.397,-59.11,,,
1365.417,-59.56,,,
1365.437,-58.16,,,
1365.457,-59.51,,,
1365.477,-60.4,,,
1365.497,-58.57,,,
1365.517,-58.96,,,
1365.537,-60.23,,,
1365.557,-58.71,,,
1365.577,-58.77,,,
1365.597,-59.67,,,
1365.617,-58.67,,,
1365.637,-58.39,,,
1365.657,-59.65,,,
1365.677,-59.15,,,
1365.697,-58.25,,,
1365.717,-59.35,,,
1365.737,-58.6,,,
1365.757,-58.02,,,
1365.777,-59.44,,,
1365.797,-58.96,,,
1365.817,-57.97,,,
1365.837,-58.56,,,
1365.857,-59.26,,,
1365.877,-58.3,,,
1365.897,-58.63,,,
1365.917,-60.38,,,
1365.937,-58.55,,,
1365.957,-58.7,,,
1365.977,-59.9,,,
1365.997,-58.39,,,
1366.017,-58.26,,,
1366.037,-59.11,,,
1366.057,-58.2,,,
1366.077,-57.81,,,
1366.097,-59.23,,,
1366.117,-58.66,,,
1366.137,-57.51,,,
1366.157,-58.48,,,
1366.177,-58.13,,,
1366.197,-57.6,,,
1366.217,-58.62,,,
1366.237,-59.18,,,
1366.257,-57.7,,,
1366.277,-58,,,
1366.297,-58.62,,,
1366.317,-57.6,,,
1366.337,-58.14,,,
1366.357,-58.8,,,
1366.377,-57.97,,,
1366.397,-57.84,,,
1366.417,-59.19,,,
1366.437,-58.27,,,
1366.457,-57.58,,,
1366.477,-58.49,,,
1366.497,-57.95,,,
1366.517,-57.44,,,
1366.537,-58.77,,,
1366.557,-58.31,,,
1366.577,-57.55,,,
1366.597,-58.46,,,
1366.617,-58.31,,,
1366.637,-57.64,,,
1366.657,-58.49,,,
1366.677,-59.1,,,
1366.697,-57.49,,,
1366.717,-58.1,,,
1366.737,-59.49,,,
1366.757,-58.1,,,
1366.777,-58.44,,,
1366.797,-59.66,,,
1366.817,-58.11,,,
1366.837,-58.14,,,
1366.857,-59.9,,,
1366.877,-59.26,,,
1366.897,-57.56,,,
1366.917,-58.56,,,
1366.937,-58.59,,,
1366.957,-57.84,,,
1366.977,-58.75,,,
1366.997,-59.59,,,
1367.017,-57.9,,,
1367.037,-58.18,,,
1367.057,-59.07,,,
1367.077,-57.95,,,
1367.097,-58.31,,,
1367.117,-59.47,,,
1367.137,-58.13,,,
1367.157,-58.04,,,
1367.177,-60.05,,,
1367.197,-58.74,,,
1367.217,-57.85,,,
1367.237,-58.85,,,
1367.257,-58.49,,,
1367.277,-57.94,,,
1367.297,-59.35,,,
1367.317,-59.25,,,
1367.337,-58.03,,,
1367.357,-58.43,,,
1367.377,-58.83,,,
1367.397,-57.82,,,
1367.417,-58.58,,,
1367.437,-59.88,,,
1367.457,-57.99,,,
1367.477,-57.97,,,
1367.497,-59.85,,,
1367.517,-58.55,,,
1367.537,-58.48,,,
1367.557,-59.72,,,
1367.577,-58.26,,,
1367.597,-58,,,
1367.617,-59.63,,,
1367.637,-58.91,,,
1367.657,-57.71,,,
1367.677,-58.58,,,
1367.697,-58.54,,,
1367.717,-57.6,,,
1367.737,-58.96,,,
1367.757,-59.55,,,
1367.777,-57.62,,,
1367.797,-58.86,,,
1367.817,-59.74,,,
1367.837,-58.31,,,
1367.857,-58.35,,,
1367.877,-59.03,,,
1367.897,-58.27,,,
1367.917,-58.64,,,
1367.937,-59.55,,,
1367.957,-58.75,,,
1367.977,-58.16,,,
1367.997,-59.24,,,
1368.017,-58.58,,,
1368.037,-58.29,,,
1368.057,-59.52,,,
1368.077,-59.11,,,
1368.097,-58.05,,,
1368.117,-59.02,,,
1368.137,-59.92,,,
1368.157,-58.36,,,
1368.177,-58.78,,,
1368.197,-59.24,,,
1368.217,-58.04,,,
1368.237,-59.03,,,
1368.257,-59.53,,,
1368.277,-58.59,,,
1368.297,-59.16,,,
1368.317,-59.2,,,
1368.337,-58.73,,,
1368.357,-58.55,,,
1368.377,-59.55,,,
1368.397,-59.03,,,
1368.417,-58.45,,,
1368.437,-59.25,,,
1368.457,-59.23,,,
1368.477,-58.39,,,
1368.497,-59.22,,,
1368.517,-58.89,,,
1368.537,-58.37,,,
1368.557,-58.78,,,
1368.577,-58.67,,,
1368.597,-58.06,,,
1368.617,-58.7,,,
1368.637,-58.96,,,
1368.657,-58.73,,,
1368.677,-59.02,,,
1368.697,-60.11,,,
1368.717,-58.85,,,
1368.737,-58.98,,,
1368.757,-59.83,,,
1368.777,-58.58,,,
1368.797,-58.07,,,
1368.817,-58.41,,,
1368.837,-58.16,,,
1368.857,-58.03,,,
1368.877,-59.39,,,
1368.897,-58.31,,,
1368.917,-57.55,,,
1368.937,-58.49,,,
1368.957,-58.37,,,
1368.977,-57.65,,,
1368.997,-58.87,,,
1369.017,-58.4,,,
1369.037,-57.46,,,
1369.057,-58.66,,,
1369.077,-59.07,,,
1369.097,-57.96,,,
1369.117,-58.25,,,
1369.137,-58.59,,,
1369.157,-57.82,,,
1369.177,-58.01,,,
1369.198,-59.14,,,
1369.217,-57.97,,,
1369.237,-57.76,,,
1369.257,-59.04,,,
1369.277,-57.94,,,
1369.297,-57.73,,,
1369.318,-58.58,,,
1369.338,-57.94,,,
1369.357,-57.69,,,
1369.377,-58.91,,,
1369.397,-58.55,,,
1369.417,-57.63,,,
1369.438,-58.38,,,
1369.458,-58.73,,,
1369.478,-57.81,,,
1369.497,-58.86,,,
1369.517,-59.22,,,
1369.537,-57.7,,,
1369.557,-58.32,,,
1369.578,-59.45,,,
1369.598,-58.21,,,
1369.618,-58.29,,,
1369.637,-59.32,,,
1369.657,-57.93,,,
1369.677,-57.62,,,
1369.698,-59.13,,,
1369.718,-58.06,,,
1369.738,-57.41,,,
1369.758,-58.05,,,
1369.778,-57.75,,,
1369.797,-57.94,,,
1369.818,-58.89,,,
1369.838,-58.44,,,
1369.858,-57.38,,,
1369.878,-58.45,,,
1369.898,-58.66,,,
1369.918,-58.11,,,
1369.938,-58.59,,,
1369.958,-58.66,,,
1369.978,-57.42,,,
1369.998,-58.32,,,
1370.018,-60.06,,,
1370.038,-58.15,,,
1370.058,-57.8,,,
1370.078,-58.84,,,
1370.098,-57.91,,,
1370.118,-57.98,,,
1370.138,-59.11,,,
1370.158,-58.29,,,
1370.178,-57.64,,,
1370.198,-58.88,,,
1370.218,-58.42,,,
1370.238,-58.17,,,
1370.258,-58.75,,,
1370.278,-58.63,,,
1370.298,-57.83,,,
1370.318,-59.02,,,
1370.338,-58.81,,,
1370.358,-58.06,,,
1370.378,-58.73,,,
1370.398,-58.84,,,
1370.418,-58.3,,,
1370.438,-58.5,,,
1370.458,-58.94,,,
1370.478,-58.14,,,
1370.498,-57.9,,,
1370.518,-58.64,,,
1370.538,-58.33,,,
1370.558,-58.23,,,
1370.578,-58.86,,,
1370.598,-59,,,
1370.618,-58.31,,,
1370.638,-58.64,,,
1370.658,-58.57,,,
1370.678,-59.03,,,
1370.698,-59.54,,,
1370.718,-58.88,,,
1370.738,-58.67,,,
1370.758,-59.82,,,
1370.778,-59.41,,,
1370.798,-58.76,,,
1370.818,-59.21,,,
1370.838,-59.48,,,
1370.858,-59.52,,,
1370.878,-60.27,,,
1370.898,-59.71,,,
1370.918,-59.11,,,
1370.938,-59.78,,,
1370.958,-60.28,,,
1370.978,-59.77,,,
1370.998,-59.56,,,
1371.018,-59.12,,,
1371.038,-58.98,,,
1371.058,-59.7,,,
1371.078,-60.19,,,
1371.098,-59.78,,,
1371.118,-59.88,,,
1371.138,-59.54,,,
1371.158,-60.32,,,
1371.178,-60.02,,,
1371.198,-59.7,,,
1371.218,-59.27,,,
1371.238,-59.78,,,
1371.258,-59.93,,,
1371.278,-59.83,,,
1371.298,-59.26,,,
1371.318,-59.37,,,
1371.338,-59.97,,,
1371.358,-59.77,,,
1371.378,-59.09,,,
1371.398,-59.07,,,
1371.418,-59.77,,,
1371.438,-59.53,,,
1371.458,-59.59,,,
1371.478,-59.96,,,
1371.498,-59.68,,,
1371.518,-59.32,,,
1371.538,-59.74,,,
1371.558,-60.03,,,
1371.578,-59.6,,,
1371.598,-60.36,,,
1371.618,-59.93,,,
1371.638,-60.33,,,
1371.658,-59.82,,,
1371.678,-59.18,,,
1371.698,-59.34,,,
1371.718,-59.76,,,
1371.738,-59.7,,,
1371.758,-59.6,,,
1371.778,-59.47,,,
1371.798,-59.31,,,
1371.818,-59.79,,,
1371.838,-59.25,,,
1371.858,-59.17,,,
1371.878,-58.85,,,
1371.898,-59.01,,,
1371.918,-59.16,,,
1371.938,-58.43,,,
1371.958,-58.91,,,
1371.978,-58.9,,,
1371.998,-58.85,,,
1372.018,-59.28,,,
1372.038,-59.07,,,
1372.058,-58.49,,,
1372.078,-59.32,,,
1372.098,-59.06,,,
1372.118,-58.31,,,
1372.138,-58.75,,,
1372.158,-58.94,,,
1372.178,-59.14,,,
1372.198,-59.5,,,
1372.218,-59.38,,,
1372.238,-58.55,,,
1372.258,-58.81,,,
1372.278,-59.21,,,
1372.298,-59.59,,,
1372.318,-58.99,,,
1372.338,-59.06,,,
1372.358,-59.31,,,
1372.378,-59.25,,,
1372.398,-59.11,,,
1372.418,-58.53,,,
1372.438,-58.68,,,
1372.458,-58.7,,,
1372.478,-58.61,,,
1372.498,-58.27,,,
1372.518,-58.79,,,
1372.538,-58.3,,,
1372.558,-58.75,,,
1372.578,-58.01,,,
1372.598,-58.3,,,
1372.618,-58.02,,,
1372.638,-58.48,,,
1372.658,-58.7,,,
1372.678,-58.3,,,
1372.698,-58.33,,,
1372.718,-58.47,,,
1372.738,-58.18,,,
1372.758,-58.38,,,
1372.778,-58.48,,,
1372.798,-57.9,,,
1372.818,-58.19,,,
1372.838,-58.06,,,
1372.858,-58.29,,,
1372.878,-58.34,,,
1372.898,-57.58,,,
1372.918,-58.13,,,
1372.938,-58.39,,,
1372.958,-58.12,,,
1372.978,-58.17,,,
1372.998,-57.98,,,
1373.018,-57.97,,,
1373.038,-58.54,,,
1373.058,-58.11,,,
1373.078,-57.39,,,
1373.098,-57.86,,,
1373.118,-57.99,,,
1373.138,-58.04,,,
1373.158,-57.8,,,
1373.178,-57.45,,,
1373.198,-57.08,,,
1373.218,-57.82,,,
1373.238,-58.08,,,
1373.258,-57.89,,,
1373.278,-57.48,,,
1373.298,-57.83,,,
1373.318,-57.39,,,
1373.338,-57.34,,,
1373.358,-58.16,,,
1373.378,-57.84,,,
1373.398,-57.74,,,
1373.418,-58.31,,,
1373.438,-58.03,,,
1373.458,-57.72,,,
1373.478,-58.82,,,
1373.498,-57.95,,,
1373.518,-57.5,,,
1373.538,-58.1,,,
1373.558,-57.84,,,
1373.578,-57.13,,,
1373.598,-57.73,,,
1373.618,-57.65,,,
1373.638,-57.23,,,
1373.658,-57.86,,,
1373.678,-57.82,,,
1373.698,-57.27,,,
1373.718,-58.05,,,
1373.738,-57.75,,,
1373.758,-57.29,,,
1373.778,-57.86,,,
1373.798,-58.14,,,
1373.818,-57.77,,,
1373.838,-57.95,,,
1373.858,-57.4,,,
1373.878,-57.78,,,
1373.898,-57.85,,,
1373.918,-57.55,,,
1373.938,-57.62,,,
1373.958,-57.62,,,
1373.978,-57.79,,,
1373.998,-58.11,,,
1374.018,-57.51,,,
1374.038,-57.62,,,
1374.058,-58.29,,,
1374.078,-58.33,,,
1374.098,-58.28,,,
1374.118,-58.1,,,
1374.138,-58.16,,,
1374.158,-58.25,,,
1374.178,-58.62,,,
1374.198,-58.87,,,
1374.218,-58.35,,,
1374.238,-58.64,,,
1374.258,-58.77,,,
1374.278,-58.09,,,
1374.298,-58.23,,,
1374.318,-58.99,,,
1374.338,-58.48,,,
1374.358,-58.11,,,
1374.378,-58.94,,,
1374.398,-58.19,,,
1374.418,-58.47,,,
1374.438,-58.6,,,
1374.458,-57.74,,,
1374.478,-57.85,,,
1374.498,-59.08,,,
1374.518,-58.72,,,
1374.538,-58.63,,,
1374.558,-60.08,,,
1374.578,-59.54,,,
1374.598,-59.4,,,
1374.618,-60.06,,,
1374.638,-59.04,,,
1374.658,-58.72,,,
1374.678,-60.2,,,
1374.698,-59.26,,,
1374.718,-58.68,,,
1374.738,-59.02,,,
1374.758,-59.21,,,
1374.778,-58.53,,,
1374.798,-59.12,,,
1374.818,-58.62,,,
1374.838,-58.77,,,
1374.858,-59.18,,,
1374.878,-58.87,,,
1374.898,-58.77,,,
1374.918,-59.32,,,
1374.938,-59.64,,,
1374.958,-59.03,,,
1374.978,-58.52,,,
1374.998,-59.25,,,
1375.018,-58.84,,,
1375.038,-59.24,,,
1375.058,-58.92,,,
1375.078,-58.18,,,
1375.098,-58.75,,,
1375.118,-59.07,,,
1375.138,-58.35,,,
1375.158,-58.86,,,
1375.178,-58.56,,,
1375.198,-58.22,,,
1375.218,-58.19,,,
1375.238,-58.51,,,
1375.258,-58.61,,,
1375.278,-58.74,,,
1375.298,-59.49,,,
1375.318,-58.82,,,
1375.338,-59.03,,,
1375.358,-58.93,,,
1375.378,-58.64,,,
1375.398,-58.32,,,
1375.418,-59.06,,,
1375.438,-59.43,,,
1375.458,-59.14,,,
1375.478,-58.91,,,
1375.498,-58.87,,,
1375.518,-58.73,,,
1375.538,-58.59,,,
1375.558,-58.18,,,
1375.578,-57.97,,,
1375.598,-58.32,,,
1375.618,-58.37,,,
1375.638,-58.26,,,
1375.658,-58.26,,,
1375.678,-58.36,,,
1375.698,-58.03,,,
1375.718,-58.73,,,
1375.738,-58.39,,,
1375.758,-58.04,,,
1375.778,-58.82,,,
1375.798,-59,,,
1375.818,-58.3,,,
1375.838,-58.23,,,
1375.858,-58.65,,,
1375.878,-58.04,,,
1375.898,-58.39,,,
1375.918,-58.29,,,
1375.938,-57.86,,,
1375.958,-58.64,,,
1375.978,-58.64,,,
1375.998,-58.13,,,
1376.018,-58.82,,,
1376.038,-58.72,,,
1376.058,-58.34,,,
1376.078,-58.86,,,
1376.098,-59.2,,,
1376.118,-58.78,,,
1376.138,-58.68,,,
1376.158,-58.83,,,
1376.178,-58.34,,,
1376.198,-59.19,,,
1376.218,-59.12,,,
1376.238,-57.81,,,
1376.258,-58.36,,,
1376.278,-58.51,,,
1376.298,-57.97,,,
1376.318,-58.1,,,
1376.338,-58.58,,,
1376.358,-57.95,,,
1376.378,-58.36,,,
1376.398,-58.75,,,
1376.418,-57.32,,,
1376.438,-57.26,,,
1376.458,-59.05,,,
1376.478,-58.17,,,
1376.498,-57.96,,,
1376.518,-59.11,,,
1376.538,-58.27,,,
1376.558,-58.54,,,
1376.578,-59.43,,,
1376.598,-57.95,,,
1376.618,-57.73,,,
1376.638,-59.03,,,
1376.658,-58.41,,,
1376.678,-57.98,,,
1376.698,-59.25,,,
1376.718,-58.67,,,
1376.738,-58.44,,,
1376.758,-59.12,,,
1376.778,-57.96,,,
1376.798,-58.05,,,
1376.818,-59.38,,,
1376.838,-58.26,,,
1376.858,-58.01,,,
1376.878,-59.79,,,
1376.898,-59.43,,,
1376.918,-58.62,,,
1376.938,-59.37,,,
1376.958,-58.58,,,
1376.978,-58.8,,,
1376.998,-59.28,,,
1377.018,-57.99,,,
1377.038,-57.62,,,
1377.058,-59.31,,,
1377.078,-58.88,,,
1377.098,-57.86,,,
1377.118,-58.51,,,
1377.138,-58.59,,,
1377.158,-57.96,,,
1377.178,-58.48,,,
1377.198,-58.3,,,
1377.219,-57.66,,,
1377.238,-59.14,,,
1377.258,-59.44,,,
1377.278,-58.26,,,
1377.298,-58.5,,,
1377.318,-58.64,,,
1377.339,-57.94,,,
1377.359,-58.01,,,
1377.378,-58.03,,,
1377.398,-57.79,,,
1377.418,-59.07,,,
1377.438,-58.9,,,
1377.458,-57.66,,,
1377.479,-58.07,,,
1377.499,-58.32,,,
1377.519,-57.39,,,
1377.538,-57.87,,,
1377.558,-57.86,,,
1377.578,-57.49,,,
1377.599,-58.29,,,
1377.619,-59.02,,,
1377.639,-57.73,,,
1377.659,-58.52,,,
1377.678,-58.61,,,
1377.698,-57.44,,,
1377.719,-57.88,,,
1377.739,-58.44,,,
1377.759,-57.53,,,
1377.779,-57.85,,,
1377.799,-58.17,,,
1377.818,-57.82,,,
1377.839,-58.31,,,
1377.859,-58.46,,,
1377.879,-57.21,,,
1377.899,-57.88,,,
1377.919,-58.66,,,
1377.939,-57.67,,,
1377.958,-58,,,
1377.979,-58.23,,,
1377.999,-57.44,,,
1378.019,-58.56,,,
1378.039,-59.04,,,
1378.059,-57.56,,,
1378.079,-57.77,,,
1378.099,-59.16,,,
1378.119,-57.61,,,
1378.139,-58.45,,,
1378.159,-59.3,,,
1378.179,-57.79,,,
1378.199,-58.39,,,
1378.219,-59.15,,,
1378.239,-58.07,,,
1378.259,-58.12,,,
1378.279,-59.25,,,
1378.299,-58.11,,,
1378.319,-58.28,,,
1378.339,-59.64,,,
1378.359,-58.44,,,
1378.379,-59.34,,,
1378.399,-60.85,,,
1378.419,-58.66,,,
1378.439,-58.48,,,
1378.459,-60.37,,,
1378.479,-58.96,,,
1378.499,-58.93,,,
1378.519,-60.45,,,
1378.539,-58.87,,,
1378.559,-59.19,,,
1378.579,-60.88,,,
1378.599,-58.79,,,
1378.619,-58.72,,,
1378.639,-60.14,,,
1378.659,-58.26,,,
1378.679,-58.37,,,
1378.699,-60.14,,,
1378.719,-58.3,,,
1378.739,-58.67,,,
1378.759,-60.01,,,
1378.779,-58.89,,,
1378.799,-58.59,,,
1378.819,-60.4,,,
1378.839,-58.78,,,
1378.859,-58.72,,,
1378.879,-60.06,,,
1378.899,-58.4,,,
1378.919,-58.63,,,
1378.939,-59.9,,,
1378.959,-57.95,,,
1378.979,-58.86,,,
1378.999,-60.16,,,
1379.019,-58.05,,,
1379.039,-58.12,,,
1379.059,-60.08,,,
1379.079,-58.58,,,
1379.099,-58.28,,,
1379.119,-59.05,,,
1379.139,-58.04,,,
1379.159,-58.13,,,
1379.179,-59.64,,,
1379.199,-58.55,,,
1379.219,-58.09,,,
1379.239,-59.3,,,
1379.259,-58.44,,,
1379.279,-58.33,,,
1379.299,-59.05,,,
1379.319,-57.97,,,
1379.339,-58.42,,,
1379.359,-58.91,,,
1379.379,-57.58,,,
1379.399,-57.25,,,
1379.419,-58.5,,,
1379.439,-58.58,,,
1379.459,-57.87,,,
1379.479,-59.15,,,
1379.499,-58.56,,,
1379.519,-58.06,,,
1379.539,-58.72,,,
1379.559,-58.23,,,
1379.579,-57.79,,,
1379.599,-59.01,,,
1379.619,-58.03,,,
1379.639,-57.86,,,
1379.659,-59.19,,,
1379.679,-58.51,,,
1379.699,-58.06,,,
1379.719,-58.29,,,
1379.739,-57.8,,,
1379.759,-57.46,,,
1379.779,-58.46,,,
1379.799,-57.34,,,
1379.819,-57.17,,,
1379.839,-58.23,,,
1379.859,-57.33,,,
1379.879,-57.26,,,
1379.899,-58.32,,,
1379.919,-57.18,,,
1379.939,-57.62,,,
1379.959,-58.56,,,
1379.979,-57.3,,,
1379.999,-57.74,,,
1380.019,-59.18,,,
1380.039,-57.73,,,
1380.059,-57.12,,,
1380.079,-58.55,,,
1380.099,-58.05,,,
1380.119,-57.49,,,
1380.139,-58.49,,,
1380.159,-57.63,,,
1380.179,-57.36,,,
1380.199,-58.79,,,
1380.219,-57.52,,,
1380.239,-57.61,,,
1380.259,-58.53,,,
1380.279,-57.58,,,
1380.299,-57.61,,,
1380.319,-58.74,,,
1380.339,-58.23,,,
1380.359,-57.81,,,
1380.379,-59.49,,,
1380.399,-58.9,,,
1380.419,-57.99,,,
1380.439,-58.91,,,
1380.459,-58.23,,,
1380.479,-57.31,,,
1380.499,-58.49,,,
1380.519,-58.06,,,
1380.539,-57.28,,,
1380.559,-58.6,,,
1380.579,-58.14,,,
1380.599,-57.47,,,
1380.619,-59.1,,,
1380.639,-58.37,,,
1380.659,-57.53,,,
1380.679,-58.08,,,
1380.699,-58.07,,,
1380.719,-57.53,,,
1380.739,-58.95,,,
1380.759,-58.13,,,
1380.779,-57.87,,,
1380.799,-59.41,,,
1380.819,-58.77,,,
1380.839,-58.48,,,
1380.859,-60.06,,,
1380.879,-58.8,,,
1380.899,-58.51,,,
1380.919,-59.59,,,
1380.939,-58.45,,,
1380.959,-58.25,,,
1380.979,-59.7,,,
1380.999,-57.84,,,
1381.019,-57.99,,,
1381.039,-59.65,,,
1381.059,-59.05,,,
1381.079,-58.37,,,
1381.099,-59.94,,,
1381.119,-58.97,,,
1381.139,-58.56,,,
1381.159,-60,,,
1381.179,-58.67,,,
1381.199,-58.62,,,
1381.219,-59.84,,,
1381.239,-58.03,,,
1381.259,-58.01,,,
1381.279,-59.73,,,
1381.299,-58.42,,,
1381.319,-58.17,,,
1381.339,-59.23,,,
1381.359,-58.08,,,
1381.379,-57.91,,,
1381.399,-58.74,,,
1381.419,-57.91,,,
1381.439,-57.64,,,
1381.459,-58.94,,,
1381.479,-57.78,,,
1381.499,-57.66,,,
1381.519,-59.37,,,
1381.539,-58.9,,,
1381.559,-58.02,,,
1381.579,-59.77,,,
1381.599,-58.31,,,
1381.619,-58.11,,,
1381.639,-59.22,,,
1381.659,-58.12,,,
1381.679,-58.48,,,
1381.699,-59.82,,,
1381.719,-58.38,,,
1381.739,-58.15,,,
1381.759,-59.98,,,
1381.779,-58.4,,,
1381.799,-57.74,,,
1381.819,-59.09,,,
1381.839,-58.16,,,
1381.859,-58.02,,,
1381.879,-59.07,,,
1381.899,-58.06,,,
1381.919,-58.37,,,
1381.939,-59.99,,,
1381.959,-57.86,,,
1381.979,-59.1,,,
1381.999,-60.49,,,
1382.019,-58.76,,,
1382.039,-58.27,,,
1382.059,-59.31,,,
1382.079,-58.02,,,
1382.099,-58.33,,,
1382.119,-58.5,,,
1382.139,-57.73,,,
1382.159,-58.13,,,
1382.179,-58.45,,,
1382.199,-57.56,,,
1382.219,-58.4,,,
1382.239,-59.76,,,
1382.259,-57.98,,,
1382.279,-59.27,,,
1382.299,-59.87,,,
1382.319,-58.6,,,
1382.339,-58.78,,,
1382.359,-59.52,,,
1382.379,-58.58,,,
1382.399,-59.23,,,
1382.419,-59.33,,,
1382.439,-58.09,,,
1382.459,-58.9,,,
1382.479,-59.21,,,
1382.499,-58.08,,,
1382.519,-58.55,,,
1382.539,-58.76,,,
1382.559,-57.67,,,
1382.579,-58.38,,,
1382.599,-58.42,,,
1382.619,-58.02,,,
1382.639,-58.83,,,
1382.659,-58.31,,,
1382.679,-58.54,,,
1382.699,-59.33,,,
1382.719,-59.1,,,
1382.739,-58.34,,,
1382.759,-59.04,,,
1382.779,-59.37,,,
1382.799,-58.7,,,
1382.819,-58.96,,,
1382.839,-58.79,,,
1382.859,-58.23,,,
1382.879,-58.76,,,
1382.899,-58.5,,,
1382.919,-58.07,,,
1382.939,-59.51,,,
1382.959,-58.58,,,
1382.979,-58.43,,,
1382.999,-58.86,,,
1383.019,-58.86,,,
1383.039,-58.55,,,
1383.059,-59.18,,,
1383.079,-58.79,,,
1383.099,-59.15,,,
1383.119,-59.22,,,
1383.139,-58.26,,,
1383.159,-59.31,,,
1383.179,-59.48,,,
1383.199,-58.96,,,
1383.219,-58.65,,,
1383.239,-60.37,,,
1383.259,-58.73,,,
1383.279,-58.95,,,
1383.299,-58.75,,,
1383.319,-58.78,,,
1383.339,-59.03,,,
1383.359,-58.96,,,
1383.379,-58.52,,,
1383.399,-59.12,,,
1383.419,-59.33,,,
1383.439,-58.33,,,
1383.459,-59.24,,,
1383.479,-59.87,,,
1383.499,-58.75,,,
1383.519,-59.44,,,
1383.539,-59.85,,,
1383.559,-58.61,,,
1383.579,-59.77,,,
1383.599,-59.06,,,
1383.619,-58.47,,,
1383.639,-60.25,,,
1383.659,-59.08,,,
1383.679,-58.27,,,
1383.699,-59.48,,,
1383.719,-59,,,
1383.739,-58.41,,,
1383.759,-59.56,,,
1383.779,-58.85,,,
1383.799,-58.57,,,
1383.819,-59.63,,,
1383.839,-59.16,,,
1383.859,-59.43,,,
1383.879,-59.94,,,
1383.899,-59.42,,,
1383.919,-58.98,,,
1383.939,-60.74,,,
1383.959,-59.06,,,
1383.979,-59.09,,,
1383.999,-59.71,,,
1384.019,-59.16,,,
1384.039,-58.79,,,
1384.059,-59.68,,,
1384.079,-58.26,,,
1384.099,-58.45,,,
1384.119,-59.63,,,
1384.139,-58.35,,,
1384.159,-58.69,,,
1384.179,-59.3,,,
1384.199,-58.61,,,
1384.219,-58.79,,,
1384.239,-59.98,,,
1384.259,-58.2,,,
1384.279,-59,,,
1384.299,-59.16,,,
1384.319,-58.01,,,
1384.339,-58.12,,,
1384.359,-58.73,,,
1384.379,-57.42,,,
1384.399,-57.88,,,
1384.419,-58.75,,,
1384.439,-57.71,,,
1384.459,-58.29,,,
1384.479,-58.34,,,
1384.499,-57.49,,,
1384.519,-58.14,,,
1384.539,-58.98,,,
1384.559,-57.61,,,
1384.579,-59.01,,,
1384.599,-59.64,,,
1384.619,-58.02,,,
1384.639,-59.31,,,
1384.659,-58.99,,,
1384.679,-57.73,,,
1384.699,-58.77,,,
1384.719,-58.73,,,
1384.739,-58.03,,,
1384.759,-59.27,,,
1384.779,-58.8,,,
1384.799,-58.8,,,
1384.819,-59.69,,,
1384.839,-58.65,,,
1384.859,-58.41,,,
1384.879,-59.53,,,
1384.899,-58.74,,,
1384.919,-58.09,,,
1384.939,-59.13,,,
1384.959,-58.22,,,
1384.979,-58.16,,,
1384.999,-58.04,,,
1385.019,-58,,,
1385.039,-58.07,,,
1385.059,-58.1,,,
1385.079,-57.87,,,
1385.099,-58.27,,,
1385.12,-58.97,,,
1385.139,-57.99,,,
1385.159,-58.75,,,
1385.179,-59.12,,,
1385.199,-58.28,,,
1385.219,-58.23,,,
1385.24,-58.93,,,
1385.26,-58.12,,,
1385.279,-58.28,,,
1385.299,-58.17,,,
1385.319,-58.8,,,
1385.339,-59.17,,,
1385.359,-59.27,,,
1385.38,-59.84,,,
1385.4,-60.29,,,
1385.419,-60.11,,,
1385.439,-59.21,,,
1385.459,-60.18,,,
1385.479,-60.21,,,
1385.5,-59.37,,,
1385.52,-59.06,,,
1385.54,-59.68,,,
1385.559,-59.07,,,
1385.579,-58.68,,,
1385.599,-58.79,,,
1385.62,-58.55,,,
1385.64,-59.16,,,
1385.66,-58.81,,,
1385.68,-59.22,,,
1385.699,-59.69,,,
1385.719,-59.13,,,
1385.74,-58.34,,,
1385.76,-59.52,,,
1385.78,-58.85,,,
1385.8,-58.64,,,
1385.82,-58.81,,,
1385.839,-58.42,,,
1385.859,-58.44,,,
1385.88,-58.88,,,
1385.9,-58.54,,,
1385.92,-58.64,,,
1385.94,-59.57,,,
1385.96,-58.5,,,
1385.98,-59.67,,,
1386,-60.42,,,
1386.02,-59.1,,,
1386.04,-59.57,,,
1386.06,-60.53,,,
1386.08,-59.91,,,
1386.1,-59.51,,,
1386.12,-60.12,,,
1386.14,-59.04,,,
1386.16,-60.3,,,
1386.18,-60.44,,,
1386.2,-59.09,,,
1386.22,-60.11,,,
1386.24,-60.45,,,
1386.26,-59.33,,,
1386.28,-60.95,,,
1386.3,-60.52,,,
1386.32,-59.07,,,
1386.34,-60.42,,,
1386.36,-59.44,,,
1386.38,-58.85,,,
1386.4,-59.43,,,
1386.42,-58.95,,,
1386.44,-58.11,,,
1386.46,-59.47,,,
1386.48,-59.15,,,
1386.5,-58.77,,,
1386.52,-60.17,,,
1386.54,-59.3,,,
1386.56,-59.01,,,
1386.58,-60.06,,,
1386.6,-59.43,,,
1386.62,-58.69,,,
1386.64,-60,,,
1386.66,-58.78,,,
1386.68,-58.6,,,
1386.7,-58.77,,,
1386.72,-58.49,,,
1386.74,-59,,,
1386.76,-58.71,,,
1386.78,-57.87,,,
1386.8,-58.34,,,
1386.82,-58.61,,,
1386.84,-57.95,,,
1386.86,-58.56,,,
1386.88,-58.87,,,
1386.9,-58.89,,,
1386.92,-58.37,,,
1386.94,-58.56,,,
1386.96,-58.07,,,
1386.98,-57.87,,,
1387,-57.71,,,
1387.02,-58.05,,,
1387.04,-57.59,,,
1387.06,-57.49,,,
1387.08,-57.81,,,
1387.1,-58.21,,,
1387.12,-58,,,
1387.14,-58.13,,,
1387.16,-58.06,,,
1387.18,-58.14,,,
1387.2,-58.23,,,
1387.22,-58.28,,,
1387.24,-58.2,,,
1387.26,-58.06,,,
1387.28,-58.13,,,
1387.3,-58.53,,,
1387.32,-58.72,,,
1387.34,-58.48,,,
1387.36,-58.54,,,
1387.38,-58.52,,,
1387.4,-58.17,,,
1387.42,-59.07,,,
1387.44,-58.83,,,
1387.46,-58.33,,,
1387.48,-59.29,,,
1387.5,-58.89,,,
1387.52,-58.62,,,
1387.54,-59.77,,,
1387.56,-59.33,,,
1387.58,-59.21,,,
1387.6,-59.03,,,
1387.62,-59.03,,,
1387.64,-58.95,,,
1387.66,-59.03,,,
1387.68,-58.79,,,
1387.7,-59.33,,,
1387.72,-59.06,,,
1387.74,-58.64,,,
1387.76,-59.18,,,
1387.78,-59.12,,,
1387.8,-58.47,,,
1387.82,-59.07,,,
1387.84,-59.3,,,
1387.86,-59.54,,,
1387.88,-59.04,,,
1387.9,-59.35,,,
1387.92,-59.67,,,
1387.94,-59.43,,,
1387.96,-59.95,,,
1387.98,-60.68,,,
1388,-59.73,,,
1388.02,-60.02,,,
1388.04,-60.95,,,
1388.06,-60.18,,,
1388.08,-59.61,,,
1388.1,-60.38,,,
1388.12,-59.79,,,
1388.14,-59.73,,,
1388.16,-60.03,,,
1388.18,-59.53,,,
1388.2,-59.36,,,
1388.22,-59.47,,,
1388.24,-59.11,,,
1388.26,-59.35,,,
1388.28,-59.07,,,
1388.3,-58.23,,,
1388.32,-58.84,,,
1388.34,-58.89,,,
1388.36,-58.49,,,
1388.38,-58.78,,,
1388.4,-58.62,,,
1388.42,-58.39,,,
1388.44,-59.75,,,
1388.46,-58.78,,,
1388.48,-58.97,,,
1388.5,-59.95,,,
1388.52,-58.77,,,
1388.54,-58.93,,,
1388.56,-58.99,,,
1388.58,-58.86,,,
1388.6,-58.87,,,
1388.62,-58.97,,,
1388.64,-59.31,,,
1388.66,-59.52,,,
1388.68,-59.3,,,
1388.7,-59.32,,,
1388.72,-60.04,,,
1388.74,-59.82,,,
1388.76,-60.08,,,
1388.78,-61.21,,,
1388.8,-61.31,,,
1388.82,-61.95,,,
1388.84,-61.83,,,
1388.86,-61.11,,,
1388.88,-60.15,,,
1388.9,-61.22,,,
1388.92,-60.82,,,
1388.94,-60.1,,,
1388.96,-59.83,,,
1388.98,-59.66,,,
1389,-59.56,,,
1389.02,-59.82,,,
1389.04,-59.97,,,
1389.06,-59.96,,,
1389.08,-59.89,,,
1389.1,-60.12,,,
1389.12,-60.38,,,
1389.14,-59.23,,,
1389.16,-60.04,,,
1389.18,-60.48,,,
1389.2,-59.75,,,
1389.22,-60.19,,,
1389.24,-60.59,,,
1389.26,-60.05,,,
1389.28,-60.39,,,
1389.3,-60.91,,,
1389.32,-60.22,,,
1389.34,-59.71,,,
1389.36,-60.16,,,
1389.38,-60.07,,,
1389.4,-60.16,,,
1389.42,-58.99,,,
1389.44,-59.43,,,
1389.46,-59.39,,,
1389.48,-58.48,,,
1389.5,-58.77,,,
1389.52,-58.91,,,
1389.54,-57.96,,,
1389.56,-58.41,,,
1389.58,-58.93,,,
1389.6,-58.63,,,
1389.62,-58.62,,,
1389.64,-58.79,,,
1389.66,-59.38,,,
1389.68,-59.06,,,
1389.7,-58.52,,,
1389.72,-58.91,,,
1389.74,-58.57,,,
1389.76,-57.94,,,
1389.78,-58.18,,,
1389.8,-58.12,,,
1389.82,-57.42,,,
1389.84,-57.38,,,
1389.86,-58.73,,,
1389.88,-57.32,,,
1389.9,-57.43,,,
1389.92,-57.84,,,
1389.94,-58.21,,,
1389.96,-57.75,,,
1389.98,-58.92,,,
1390,-58.63,,,
