wavelength_axis,light_level,mean_wavelength,total_power
1250.0,-61.95,1308.083,-22.296808070384394
1250.015,-61.98,,
1250.03,-61.88,,
1250.045,-62.12,,
1250.06,-61.28,,
1250.075,-61.76,,
1250.09,-61.79,,
1250.105,-61.5,,
1250.12,-62.69,,
1250.135,-62.47,,
1250.15,-62.51,,
1250.165,-61.8,,
1250.18,-62.02,,
1250.195,-62.62,,
1250.21,-62.44,,
1250.225,-61.56,,
1250.24,-61.48,,
1250.255,-61.36,,
1250.27,-62.03,,
1250.285,-62.05,,
1250.3,-62.07,,
1250.315,-61.95,,
1250.33,-61.64,,
1250.345,-61.85,,
1250.36,-62.47,,
1250.375,-61.88,,
1250.39,-60.81,,
1250.405,-60.63,,
1250.42,-60.74,,
1250.435,-61.61,,
1250.45,-62.18,,
1250.465,-61.66,,
1250.48,-61.24,,
1250.495,-60.81,,
1250.51,-61.19,,
1250.525,-61.72,,
1250.54,-62.0,,
1250.555,-61.96,,
1250.57,-61.37,,
1250.585,-61.62,,
1250.6,-62.32,,
1250.615,-63.11,,
1250.63,-62.79,,
1250.645,-62.21,,
1250.66,-61.25,,
1250.675,-61.39,,
1250.69,-61.98,,
1250.705,-62.24,,
1250.72,-62.12,,
1250.735,-61.29,,
1250.75,-61.43,,
1250.765,-62.46,,
1250.78,-63.19,,
1250.795,-63.09,,
1250.81,-62.31,,
1250.825,-61.31,,
1250.84,-61.59,,
1250.855,-62.15,,
1250.87,-62.66,,
1250.885,-62.19,,
1250.9,-61.55,,
1250.915,-61.18,,
1250.93,-61.36,,
1250.945,-62.26,,
1250.96,-61.53,,
1250.975,-60.69,,
1250.99,-60.21,,
1251.005,-60.75,,
1251.02,-61.51,,
1251.035,-62.06,,
1251.05,-61.3,,
1251.065,-61.12,,
1251.08,-60.78,,
1251.095,-61.17,,
1251.11,-62.09,,
1251.125,-61.21,,
1251.14,-60.43,,
1251.155,-60.07,,
1251.17,-60.5,,
1251.185,-61.38,,
1251.2,-61.81,,
1251.215,-61.03,,
1251.23,-60.74,,
1251.245,-61.12,,
1251.26,-61.46,,
1251.275,-62.4,,
1251.29,-62.26,,
1251.305,-61.48,,
1251.32,-61.04,,
1251.335,-61.15,,
1251.35,-62.41,,
1251.365,-62.49,,
1251.38,-61.89,,
1251.395,-61.78,,
1251.41,-61.58,,
1251.425,-62.18,,
1251.44,-62.44,,
1251.455,-61.67,,
1251.47,-61.01,,
1251.485,-61.13,,
1251.5,-61.49,,
1251.515,-61.96,,
1251.53,-61.96,,
1251.545,-61.5,,
1251.56,-60.87,,
1251.575,-60.82,,
1251.59,-61.42,,
1251.605,-61.12,,
1251.62,-60.35,,
1251.635,-60.01,,
1251.65,-60.15,,
1251.665,-60.46,,
1251.68,-60.98,,
1251.695,-61.02,,
1251.71,-60.84,,
1251.725,-60.47,,
1251.74,-61.08,,
1251.755,-61.7,,
1251.77,-61.49,,
1251.785,-60.76,,
1251.8,-60.39,,
1251.815,-60.43,,
1251.83,-61.13,,
1251.845,-61.36,,
1251.86,-61.42,,
1251.875,-60.96,,
1251.89,-60.64,,
1251.905,-61.86,,
1251.92,-61.87,,
1251.935,-62.47,,
1251.95,-61.28,,
1251.965,-61.16,,
1251.98,-61.11,,
1251.995,-61.91,,
1252.01,-61.93,,
1252.025,-61.19,,
1252.04,-60.33,,
1252.055,-60.32,,
1252.07,-61.13,,
1252.085,-61.25,,
1252.1,-61.61,,
1252.115,-60.64,,
1252.13,-60.81,,
1252.145,-61.0,,
1252.16,-62.2,,
1252.175,-62.01,,
1252.19,-61.07,,
1252.205,-60.18,,
1252.22,-60.31,,
1252.235,-61.37,,
1252.25,-60.97,,
1252.265,-61.43,,
1252.28,-60.09,,
1252.295,-59.94,,
1252.31,-60.31,,
1252.325,-60.9,,
1252.34,-61.2,,
1252.355,-60.29,,
1252.37,-59.58,,
1252.385,-59.46,,
1252.4,-60.21,,
1252.415,-60.38,,
1252.43,-60.56,,
1252.445,-59.8,,
1252.46,-59.95,,
1252.475,-60.56,,
1252.49,-61.44,,
1252.505,-60.9,,
1252.52,-60.62,,
1252.535,-60.45,,
1252.55,-60.64,,
1252.565,-61.53,,
1252.58,-61.99,,
1252.595,-61.24,,
1252.61,-60.48,,
1252.625,-60.95,,
1252.64,-61.74,,
1252.655,-62.49,,
1252.67,-62.24,,
1252.685,-61.48,,
1252.7,-60.98,,
1252.715,-61.21,,
1252.73,-62.04,,
1252.745,-61.56,,
1252.76,-60.86,,
1252.775,-60.4,,
1252.79,-60.6,,
1252.805,-61.37,,
1252.82,-61.42,,
1252.835,-61.17,,
1252.85,-60.78,,
1252.865,-60.34,,
1252.88,-60.44,,
1252.895,-61.59,,
1252.91,-61.04,,
1252.925,-60.52,,
1252.94,-59.9,,
1252.955,-59.85,,
1252.97,-60.41,,
1252.985,-60.56,,
1253.0,-60.57,,
1253.015,-60.1,,
1253.03,-60.05,,
1253.045,-61.27,,
1253.06,-61.73,,
1253.075,-61.15,,
1253.09,-60.81,,
1253.105,-60.52,,
1253.12,-60.36,,
1253.135,-60.69,,
1253.15,-61.02,,
1253.165,-60.63,,
1253.18,-60.33,,
1253.195,-60.81,,
1253.21,-61.73,,
1253.225,-62.03,,
1253.24,-61.53,,
1253.255,-61.16,,
1253.271,-60.68,,
1253.285,-60.84,,
1253.3,-62.08,,
1253.315,-61.63,,
1253.33,-60.85,,
1253.345,-60.19,,
1253.36,-60.67,,
1253.375,-61.59,,
1253.391,-62.7,,
1253.406,-61.58,,
1253.421,-61.22,,
1253.435,-61.12,,
1253.45,-61.65,,
1253.465,-62.78,,
1253.48,-61.67,,
1253.495,-60.74,,
1253.51,-60.52,,
1253.526,-61.26,,
1253.541,-61.34,,
1253.556,-60.93,,
1253.571,-60.1,,
1253.585,-59.69,,
1253.6,-60.35,,
1253.615,-60.83,,
1253.63,-61.12,,
1253.646,-60.16,,
1253.661,-59.55,,
1253.676,-59.38,,
1253.691,-60.08,,
1253.706,-60.2,,
1253.72,-59.82,,
1253.735,-59.34,,
1253.75,-59.17,,
1253.766,-59.82,,
1253.781,-60.03,,
1253.796,-60.72,,
1253.811,-59.82,,
1253.826,-59.85,,
1253.841,-60.34,,
1253.856,-61.04,,
1253.87,-60.99,,
1253.885,-60.88,,
1253.901,-60.13,,
1253.916,-59.66,,
1253.931,-60.29,,
1253.946,-60.32,,
1253.961,-60.99,,
1253.976,-60.09,,
1253.991,-59.99,,
1254.005,-60.49,,
1254.021,-61.17,,
1254.036,-61.38,,
1254.051,-60.57,,
1254.066,-60.39,,
1254.081,-60.14,,
1254.096,-60.86,,
1254.111,-60.71,,
1254.126,-61.21,,
1254.141,-60.73,,
1254.156,-60.76,,
1254.171,-60.9,,
1254.186,-61.44,,
1254.201,-61.16,,
1254.216,-60.34,,
1254.231,-60.59,,
1254.246,-60.13,,
1254.261,-60.78,,
1254.276,-60.59,,
1254.291,-60.6,,
1254.306,-59.91,,
1254.321,-59.81,,
1254.336,-60.64,,
1254.351,-60.97,,
1254.366,-61.42,,
1254.381,-60.59,,
1254.396,-60.16,,
1254.411,-60.05,,
1254.426,-61.03,,
1254.441,-61.25,,
1254.456,-61.03,,
1254.471,-60.13,,
1254.486,-60.23,,
1254.501,-60.79,,
1254.516,-61.14,,
1254.531,-61.17,,
1254.546,-60.27,,
1254.561,-60.86,,
1254.576,-61.66,,
1254.591,-63.05,,
1254.606,-61.96,,
1254.621,-61.19,,
1254.636,-61.17,,
1254.651,-61.95,,
1254.666,-62.77,,
1254.681,-63.06,,
1254.696,-62.79,,
1254.711,-61.84,,
1254.726,-62.49,,
1254.741,-64.38,,
1254.756,-66.83,,
1254.771,-64.73,,
1254.786,-63.82,,
1254.801,-63.65,,
1254.816,-64.15,,
1254.831,-66.91,,
1254.846,-64.57,,
1254.861,-63.07,,
1254.876,-62.66,,
1254.891,-63.6,,
1254.906,-64.39,,
1254.921,-64.29,,
1254.936,-63.22,,
1254.951,-63.18,,
1254.966,-63.3,,
1254.981,-64.2,,
1254.996,-66.75,,
1255.011,-64.59,,
1255.026,-62.56,,
1255.041,-62.01,,
1255.056,-62.33,,
1255.071,-63.13,,
1255.086,-63.01,,
1255.101,-62.23,,
1255.116,-61.78,,
1255.131,-62.07,,
1255.146,-63.39,,
1255.161,-64.25,,
1255.176,-63.41,,
1255.191,-62.12,,
1255.206,-61.82,,
1255.221,-62.6,,
1255.236,-63.01,,
1255.251,-62.99,,
1255.266,-61.76,,
1255.281,-61.35,,
1255.296,-62.13,,
1255.311,-64.15,,
1255.326,-65.17,,
1255.341,-63.36,,
1255.356,-62.99,,
1255.371,-62.55,,
1255.386,-62.77,,
1255.401,-63.75,,
1255.416,-63.82,,
1255.431,-62.62,,
1255.446,-61.54,,
1255.461,-61.6,,
1255.476,-62.9,,
1255.491,-64.07,,
1255.506,-63.45,,
1255.521,-62.75,,
1255.536,-62.4,,
1255.551,-63.08,,
1255.566,-63.35,,
1255.581,-62.66,,
1255.596,-61.13,,
1255.611,-60.87,,
1255.626,-61.66,,
1255.641,-62.03,,
1255.656,-61.77,,
1255.671,-61.76,,
1255.686,-61.75,,
1255.701,-61.6,,
1255.716,-62.51,,
1255.731,-63.74,,
1255.746,-62.51,,
1255.761,-60.99,,
1255.776,-60.95,,
1255.791,-61.4,,
1255.806,-61.72,,
1255.821,-61.35,,
1255.836,-60.43,,
1255.851,-60.17,,
1255.866,-60.44,,
1255.881,-61.21,,
1255.896,-60.63,,
1255.911,-60.27,,
1255.926,-60.33,,
1255.941,-60.68,,
1255.956,-61.13,,
1255.971,-61.27,,
1255.986,-61.02,,
1256.001,-60.37,,
1256.016,-60.84,,
1256.031,-61.44,,
1256.046,-62.36,,
1256.061,-61.95,,
1256.076,-61.16,,
1256.091,-61.14,,
1256.106,-61.96,,
1256.121,-62.33,,
1256.136,-61.89,,
1256.151,-61.17,,
1256.166,-60.6,,
1256.181,-60.94,,
1256.196,-61.35,,
1256.211,-61.71,,
1256.226,-61.42,,
1256.241,-60.72,,
1256.256,-61.04,,
1256.271,-61.39,,
1256.286,-62.32,,
1256.301,-61.72,,
1256.316,-60.8,,
1256.331,-60.2,,
1256.346,-60.63,,
1256.361,-61.2,,
1256.376,-60.6,,
1256.391,-60.63,,
1256.406,-60.14,,
1256.421,-60.63,,
1256.436,-60.84,,
1256.451,-61.53,,
1256.466,-61.68,,
1256.481,-61.44,,
1256.496,-61.51,,
1256.511,-61.46,,
1256.526,-61.87,,
1256.541,-61.48,,
1256.556,-61.65,,
1256.571,-61.14,,
1256.586,-61.47,,
1256.601,-61.96,,
1256.616,-62.01,,
1256.631,-61.82,,
1256.646,-61.19,,
1256.661,-61.76,,
1256.676,-61.23,,
1256.691,-61.53,,
1256.706,-61.08,,
1256.721,-61.14,,
1256.736,-60.59,,
1256.751,-61.04,,
1256.766,-61.46,,
1256.781,-61.14,,
1256.796,-61.13,,
1256.811,-60.51,,
1256.826,-61.16,,
1256.841,-61.3,,
1256.856,-61.61,,
1256.871,-61.29,,
1256.886,-60.92,,
1256.901,-61.82,,
1256.916,-62.41,,
1256.931,-63.07,,
1256.946,-62.15,,
1256.961,-62.15,,
1256.976,-61.52,,
1256.991,-62.33,,
1257.006,-62.65,,
1257.021,-62.29,,
1257.036,-61.39,,
1257.051,-60.77,,
1257.066,-61.86,,
1257.081,-62.57,,
1257.096,-63.09,,
1257.111,-61.69,,
1257.126,-61.91,,
1257.141,-62.02,,
1257.156,-63.44,,
1257.171,-63.17,,
1257.186,-62.06,,
1257.201,-61.36,,
1257.216,-61.26,,
1257.231,-61.85,,
1257.246,-61.77,,
1257.261,-61.22,,
1257.276,-60.77,,
1257.291,-60.82,,
1257.306,-61.32,,
1257.321,-62.05,,
1257.336,-61.98,,
1257.351,-61.4,,
1257.366,-60.76,,
1257.381,-61.61,,
1257.396,-62.29,,
1257.411,-62.12,,
1257.426,-61.41,,
1257.441,-61.28,,
1257.456,-61.71,,
1257.471,-61.77,,
1257.486,-62.0,,
1257.501,-61.08,,
1257.516,-60.71,,
1257.531,-61.03,,
1257.546,-62.02,,
1257.561,-61.94,,
1257.576,-61.67,,
1257.591,-61.34,,
1257.606,-60.84,,
1257.621,-61.91,,
1257.636,-61.81,,
1257.651,-61.88,,
1257.666,-61.12,,
1257.681,-60.93,,
1257.696,-61.15,,
1257.711,-61.74,,
1257.726,-61.53,,
1257.741,-61.24,,
1257.756,-60.78,,
1257.771,-61.13,,
1257.786,-62.08,,
1257.801,-62.05,,
1257.816,-61.9,,
1257.831,-61.59,,
1257.846,-61.74,,
1257.861,-62.32,,
1257.876,-62.17,,
1257.891,-62.03,,
1257.906,-60.98,,
1257.921,-60.86,,
1257.936,-60.72,,
1257.951,-60.69,,
1257.966,-60.68,,
1257.981,-60.57,,
1257.996,-60.31,,
1258.011,-60.85,,
1258.026,-61.05,,
1258.041,-61.2,,
1258.056,-61.32,,
1258.071,-61.35,,
1258.086,-60.89,,
1258.101,-61.25,,
1258.116,-61.34,,
1258.131,-60.92,,
1258.146,-61.02,,
1258.161,-60.8,,
1258.176,-61.05,,
1258.191,-60.8,,
1258.206,-60.99,,
1258.221,-60.76,,
1258.236,-60.85,,
1258.251,-61.41,,
1258.266,-61.76,,
1258.281,-61.99,,
1258.296,-61.41,,
1258.311,-62.01,,
1258.326,-61.76,,
1258.341,-62.19,,
1258.356,-61.68,,
1258.371,-62.09,,
1258.386,-61.32,,
1258.401,-61.57,,
1258.416,-62.15,,
1258.431,-61.71,,
1258.446,-61.81,,
1258.461,-60.97,,
1258.476,-61.66,,
1258.491,-61.03,,
1258.506,-61.49,,
1258.521,-61.07,,
1258.536,-60.57,,
1258.551,-60.47,,
1258.566,-60.78,,
1258.581,-60.97,,
1258.596,-60.45,,
1258.611,-60.94,,
1258.626,-60.17,,
1258.641,-60.98,,
1258.656,-60.9,,
1258.671,-61.0,,
1258.686,-61.05,,
1258.701,-60.77,,
1258.716,-61.19,,
1258.731,-60.78,,
1258.746,-60.96,,
1258.761,-60.75,,
1258.776,-60.53,,
1258.791,-60.3,,
1258.806,-60.85,,
1258.821,-60.92,,
1258.836,-60.66,,
1258.851,-60.96,,
1258.866,-60.64,,
1258.881,-61.45,,
1258.896,-61.14,,
1258.911,-61.31,,
1258.926,-60.93,,
1258.941,-60.72,,
1258.956,-61.86,,
1258.971,-61.56,,
1258.986,-61.86,,
1259.001,-61.45,,
1259.016,-61.17,,
1259.031,-61.22,,
1259.046,-61.66,,
1259.061,-61.83,,
1259.076,-61.21,,
1259.091,-61.53,,
1259.106,-61.17,,
1259.121,-61.53,,
1259.136,-61.45,,
1259.151,-61.54,,
1259.166,-60.89,,
1259.181,-61.11,,
1259.196,-61.43,,
1259.211,-61.23,,
1259.226,-61.43,,
1259.241,-61.3,,
1259.256,-61.38,,
1259.271,-60.95,,
1259.286,-61.45,,
1259.301,-61.61,,
1259.316,-60.98,,
1259.331,-60.88,,
1259.346,-60.88,,
1259.361,-61.74,,
1259.376,-61.39,,
1259.391,-61.89,,
1259.406,-61.4,,
1259.421,-61.31,,
1259.436,-61.85,,
1259.451,-61.5,,
1259.466,-61.56,,
1259.481,-60.92,,
1259.496,-61.79,,
1259.511,-61.32,,
1259.526,-61.96,,
1259.541,-62.07,,
1259.556,-61.55,,
1259.571,-61.33,,
1259.586,-61.66,,
1259.601,-62.29,,
1259.616,-62.01,,
1259.631,-62.81,,
1259.646,-61.78,,
1259.661,-62.52,,
1259.676,-62.44,,
1259.691,-62.57,,
1259.706,-62.15,,
1259.721,-61.42,,
1259.736,-62.25,,
1259.751,-61.86,,
1259.766,-62.32,,
1259.781,-62.0,,
1259.796,-61.94,,
1259.811,-61.46,,
1259.826,-61.87,,
1259.841,-61.72,,
1259.856,-61.28,,
1259.871,-61.49,,
1259.886,-61.16,,
1259.901,-61.78,,
1259.916,-61.93,,
1259.931,-61.86,,
1259.946,-61.48,,
1259.961,-61.34,,
1259.976,-61.72,,
1259.991,-61.37,,
1260.006,-61.59,,
1260.021,-61.45,,
1260.036,-61.64,,
1260.051,-60.94,,
1260.066,-61.28,,
1260.081,-61.13,,
1260.096,-61.09,,
1260.111,-61.24,,
1260.126,-61.16,,
1260.141,-61.23,,
1260.156,-60.94,,
1260.171,-61.73,,
1260.186,-61.07,,
1260.201,-61.49,,
1260.216,-61.54,,
1260.231,-61.57,,
1260.246,-61.41,,
1260.261,-61.01,,
1260.276,-61.85,,
1260.291,-61.09,,
1260.306,-61.05,,
1260.321,-60.99,,
1260.336,-61.39,,
1260.351,-61.51,,
1260.366,-61.38,,
1260.381,-61.2,,
1260.396,-60.98,,
1260.411,-61.74,,
1260.426,-61.71,,
1260.441,-61.68,,
1260.456,-61.54,,
1260.471,-61.54,,
1260.486,-61.8,,
1260.501,-61.91,,
1260.516,-61.92,,
1260.531,-61.2,,
1260.546,-61.12,,
1260.561,-61.34,,
1260.576,-61.63,,
1260.591,-60.95,,
1260.606,-60.98,,
1260.621,-60.85,,
1260.636,-60.69,,
1260.651,-61.36,,
1260.666,-60.73,,
1260.681,-60.83,,
1260.696,-60.53,,
1260.711,-61.14,,
1260.726,-61.99,,
1260.741,-61.76,,
1260.756,-61.65,,
1260.771,-61.11,,
1260.786,-61.74,,
1260.801,-61.85,,
1260.816,-61.93,,
1260.831,-61.02,,
1260.846,-60.99,,
1260.861,-60.94,,
1260.876,-61.06,,
1260.891,-61.3,,
1260.906,-60.31,,
1260.921,-60.02,,
1260.936,-59.88,,
1260.951,-60.48,,
1260.966,-60.93,,
1260.981,-60.34,,
1260.996,-60.59,,
1261.011,-60.38,,
1261.026,-61.16,,
1261.041,-60.85,,
1261.056,-61.2,,
1261.071,-60.4,,
1261.086,-60.55,,
1261.101,-60.87,,
1261.116,-60.71,,
1261.131,-60.79,,
1261.146,-60.23,,
1261.161,-60.58,,
1261.176,-60.83,,
1261.191,-61.29,,
1261.206,-60.9,,
1261.221,-60.68,,
1261.236,-61.1,,
1261.251,-61.41,,
1261.266,-62.27,,
1261.281,-61.43,,
1261.297,-61.45,,
1261.312,-61.19,,
1261.326,-61.68,,
1261.341,-61.8,,
1261.356,-61.11,,
1261.371,-60.7,,
1261.386,-60.46,,
1261.401,-60.86,,
1261.417,-60.68,,
1261.432,-60.11,,
1261.447,-59.58,,
1261.461,-59.65,,
1261.476,-60.0,,
1261.491,-60.45,,
1261.506,-60.26,,
1261.521,-59.87,,
1261.536,-60.01,,
1261.552,-60.7,,
1261.567,-61.3,,
1261.582,-60.82,,
1261.597,-60.53,,
1261.611,-60.64,,
1261.626,-60.79,,
1261.641,-61.54,,
1261.656,-61.3,,
1261.672,-60.84,,
1261.687,-60.47,,
1261.702,-60.71,,
1261.717,-61.4,,
1261.732,-61.03,,
1261.746,-60.51,,
1261.761,-60.18,,
1261.776,-60.74,,
1261.792,-61.09,,
1261.807,-61.0,,
1261.822,-60.74,,
1261.837,-60.58,,
1261.852,-60.75,,
1261.867,-61.08,,
1261.882,-61.21,,
1261.896,-61.08,,
1261.911,-61.16,,
1261.927,-61.7,,
1261.942,-61.89,,
1261.957,-62.51,,
1261.972,-61.97,,
1261.987,-62.6,,
1262.002,-61.9,,
1262.017,-62.38,,
1262.031,-62.64,,
1262.047,-62.3,,
1262.062,-62.23,,
1262.077,-61.73,,
1262.092,-62.05,,
1262.107,-61.8,,
1262.122,-61.85,,
1262.137,-61.7,,
1262.152,-61.6,,
1262.167,-61.97,,
1262.182,-61.48,,
1262.197,-61.48,,
1262.212,-61.56,,
1262.227,-62.25,,
1262.242,-61.68,,
1262.257,-61.59,,
1262.272,-61.8,,
1262.287,-61.95,,
1262.302,-62.4,,
1262.317,-62.39,,
1262.332,-62.72,,
1262.347,-62.18,,
1262.362,-62.89,,
1262.377,-62.63,,
1262.392,-62.51,,
1262.407,-62.04,,
1262.422,-61.88,,
1262.437,-63.06,,
1262.452,-62.7,,
1262.467,-63.23,,
1262.482,-62.48,,
1262.497,-62.78,,
1262.512,-62.51,,
1262.527,-63.34,,
1262.542,-63.06,,
1262.557,-62.52,,
1262.572,-62.83,,
1262.587,-62.7,,
1262.602,-64.14,,
1262.617,-63.07,,
1262.632,-63.2,,
1262.647,-63.33,,
1262.662,-62.67,,
1262.677,-63.36,,
1262.692,-63.04,,
1262.707,-63.69,,
1262.722,-62.32,,
1262.737,-62.27,,
1262.752,-62.39,,
1262.767,-62.51,,
1262.782,-62.64,,
1262.797,-61.58,,
1262.812,-61.88,,
1262.827,-61.79,,
1262.842,-61.5,,
1262.857,-61.47,,
1262.872,-61.66,,
1262.887,-62.25,,
1262.902,-61.43,,
1262.917,-61.82,,
1262.932,-61.1,,
1262.947,-61.78,,
1262.962,-62.29,,
1262.977,-62.33,,
1262.992,-61.63,,
1263.007,-61.34,,
1263.022,-61.82,,
1263.037,-61.46,,
1263.052,-61.89,,
1263.067,-60.88,,
1263.082,-61.06,,
1263.097,-61.43,,
1263.112,-61.4,,
1263.127,-62.09,,
1263.142,-60.98,,
1263.157,-61.17,,
1263.172,-60.74,,
1263.187,-61.11,,
1263.202,-61.34,,
1263.217,-60.68,,
1263.232,-60.11,,
1263.247,-60.11,,
1263.262,-61.23,,
1263.277,-60.64,,
1263.292,-60.62,,
1263.307,-59.82,,
1263.322,-59.88,,
1263.337,-60.42,,
1263.352,-60.52,,
1263.367,-60.49,,
1263.382,-59.93,,
1263.397,-60.09,,
1263.412,-61.23,,
1263.427,-61.53,,
1263.442,-60.83,,
1263.457,-60.98,,
1263.472,-60.6,,
1263.487,-60.72,,
1263.502,-61.1,,
1263.517,-61.16,,
1263.532,-60.17,,
1263.547,-60.12,,
1263.562,-60.25,,
1263.577,-60.18,,
1263.592,-60.46,,
1263.607,-59.8,,
1263.622,-59.79,,
1263.637,-59.93,,
1263.652,-60.22,,
1263.667,-60.08,,
1263.682,-60.11,,
1263.697,-59.91,,
1263.712,-59.78,,
1263.727,-60.51,,
1263.742,-60.71,,
1263.757,-60.36,,
1263.772,-60.21,,
1263.787,-60.42,,
1263.802,-60.68,,
1263.817,-60.9,,
1263.832,-60.38,,
1263.847,-60.37,,
1263.862,-61.08,,
1263.877,-61.22,,
1263.892,-61.18,,
1263.907,-61.3,,
1263.922,-60.62,,
1263.937,-60.83,,
1263.952,-60.81,,
1263.967,-61.04,,
1263.982,-60.45,,
1263.997,-60.44,,
1264.012,-60.35,,
1264.027,-60.37,,
1264.042,-60.85,,
1264.057,-60.37,,
1264.072,-60.59,,
1264.087,-60.46,,
1264.102,-60.39,,
1264.117,-61.05,,
1264.132,-60.69,,
1264.147,-60.88,,
1264.162,-60.54,,
1264.177,-61.45,,
1264.192,-61.17,,
1264.207,-61.32,,
1264.222,-61.93,,
1264.237,-61.46,,
1264.252,-61.57,,
1264.267,-61.13,,
1264.282,-61.91,,
1264.297,-61.52,,
1264.312,-61.43,,
1264.327,-61.74,,
1264.342,-60.75,,
1264.357,-60.77,,
1264.372,-61.03,,
1264.387,-61.82,,
1264.402,-62.0,,
1264.417,-60.92,,
1264.432,-60.96,,
1264.447,-60.82,,
1264.462,-61.38,,
1264.477,-61.07,,
1264.492,-61.73,,
1264.507,-61.26,,
1264.522,-60.99,,
1264.537,-61.82,,
1264.552,-61.88,,
1264.567,-62.17,,
1264.582,-61.59,,
1264.597,-61.21,,
1264.612,-61.42,,
1264.627,-61.39,,
1264.642,-61.36,,
1264.657,-60.44,,
1264.672,-60.95,,
1264.687,-60.45,,
1264.702,-61.02,,
1264.717,-61.02,,
1264.732,-60.63,,
1264.747,-60.92,,
1264.762,-61.19,,
1264.777,-61.39,,
1264.792,-60.78,,
1264.807,-61.2,,
1264.822,-61.38,,
1264.837,-61.78,,
1264.852,-62.48,,
1264.867,-61.46,,
1264.882,-62.08,,
1264.897,-61.3,,
1264.912,-61.77,,
1264.927,-61.71,,
1264.942,-61.62,,
1264.957,-61.61,,
1264.972,-60.9,,
1264.987,-61.42,,
1265.002,-60.86,,
1265.017,-61.25,,
1265.032,-61.02,,
1265.047,-61.02,,
1265.062,-61.34,,
1265.077,-60.74,,
1265.092,-60.97,,
1265.107,-60.91,,
1265.122,-60.93,,
1265.137,-60.86,,
1265.152,-61.24,,
1265.167,-61.13,,
1265.182,-60.65,,
1265.197,-61.26,,
1265.212,-61.0,,
1265.227,-61.0,,
1265.242,-60.98,,
1265.257,-61.05,,
1265.272,-61.46,,
1265.287,-60.85,,
1265.302,-60.94,,
1265.317,-61.05,,
1265.332,-60.74,,
1265.347,-60.75,,
1265.362,-61.02,,
1265.377,-61.08,,
1265.392,-60.5,,
1265.407,-60.49,,
1265.422,-60.46,,
1265.437,-60.38,,
1265.452,-61.11,,
1265.467,-60.88,,
1265.482,-61.07,,
1265.497,-60.71,,
1265.512,-61.38,,
1265.527,-61.6,,
1265.542,-61.61,,
1265.557,-61.63,,
1265.572,-61.11,,
1265.587,-61.83,,
1265.602,-61.29,,
1265.617,-61.91,,
1265.632,-61.84,,
1265.647,-61.57,,
1265.662,-61.79,,
1265.677,-61.15,,
1265.692,-61.65,,
1265.707,-61.05,,
1265.722,-61.13,,
1265.737,-60.86,,
1265.752,-60.73,,
1265.767,-60.39,,
1265.782,-60.13,,
1265.797,-60.45,,
1265.812,-60.31,,
1265.827,-60.39,,
1265.842,-60.2,,
1265.857,-60.48,,
1265.872,-60.52,,
1265.887,-60.16,,
1265.902,-61.08,,
1265.917,-60.63,,
1265.932,-60.79,,
1265.947,-60.63,,
1265.962,-60.9,,
1265.977,-60.92,,
1265.992,-61.24,,
1266.007,-61.29,,
1266.022,-60.89,,
1266.037,-61.44,,
1266.052,-61.05,,
1266.067,-61.37,,
1266.082,-61.48,,
1266.097,-61.17,,
1266.112,-61.31,,
1266.127,-61.17,,
1266.142,-61.7,,
1266.157,-60.83,,
1266.172,-61.37,,
1266.187,-61.41,,
1266.202,-60.98,,
1266.217,-61.27,,
1266.232,-60.83,,
1266.247,-61.37,,
1266.262,-61.29,,
1266.277,-60.96,,
1266.292,-61.58,,
1266.307,-61.58,,
1266.322,-61.44,,
1266.337,-61.15,,
1266.352,-61.81,,
1266.367,-61.8,,
1266.382,-61.91,,
1266.397,-61.5,,
1266.412,-61.02,,
1266.427,-61.15,,
1266.442,-61.81,,
1266.457,-61.64,,
1266.472,-60.71,,
1266.487,-60.72,,
1266.502,-60.9,,
1266.517,-61.09,,
1266.532,-61.1,,
1266.547,-60.2,,
1266.562,-59.99,,
1266.577,-60.22,,
1266.592,-60.58,,
1266.607,-60.93,,
1266.622,-59.95,,
1266.637,-59.6,,
1266.652,-59.92,,
1266.667,-60.67,,
1266.682,-60.93,,
1266.697,-60.52,,
1266.712,-60.14,,
1266.727,-60.39,,
1266.742,-61.46,,
1266.757,-61.14,,
1266.772,-60.93,,
1266.787,-60.7,,
1266.802,-61.26,,
1266.817,-62.23,,
1266.832,-62.67,,
1266.847,-61.94,,
1266.862,-60.93,,
1266.877,-61.34,,
1266.892,-61.81,,
1266.907,-61.69,,
1266.922,-60.96,,
1266.937,-60.51,,
1266.952,-61.39,,
1266.967,-61.82,,
1266.982,-62.65,,
1266.997,-61.18,,
1267.012,-61.19,,
1267.027,-62.43,,
1267.042,-63.14,,
1267.057,-63.67,,
1267.072,-62.05,,
1267.087,-62.13,,
1267.102,-62.76,,
1267.117,-64.47,,
1267.132,-63.99,,
1267.147,-62.49,,
1267.162,-62.85,,
1267.177,-62.39,,
1267.192,-63.6,,
1267.207,-63.61,,
1267.222,-62.91,,
1267.237,-62.99,,
1267.252,-62.02,,
1267.267,-63.5,,
1267.282,-63.38,,
1267.297,-62.2,,
1267.312,-60.85,,
1267.327,-61.08,,
1267.342,-62.01,,
1267.357,-61.55,,
1267.372,-61.71,,
1267.387,-60.82,,
1267.402,-61.2,,
1267.417,-61.97,,
1267.432,-62.06,,
1267.447,-61.68,,
1267.462,-61.12,,
1267.477,-61.92,,
1267.492,-61.91,,
1267.507,-61.78,,
1267.522,-61.23,,
1267.537,-60.75,,
1267.552,-61.53,,
1267.567,-61.63,,
1267.582,-62.32,,
1267.597,-61.31,,
1267.612,-61.21,,
1267.627,-62.32,,
1267.642,-62.42,,
1267.657,-62.92,,
1267.672,-61.86,,
1267.687,-61.81,,
1267.702,-62.18,,
1267.717,-63.97,,
1267.732,-63.66,,
1267.747,-62.3,,
1267.762,-63.11,,
1267.777,-63.65,,
1267.792,-65.51,,
1267.807,-65.19,,
1267.822,-63.78,,
1267.837,-62.29,,
1267.852,-63.12,,
1267.867,-64.57,,
1267.882,-64.49,,
1267.897,-63.38,,
1267.912,-62.42,,
1267.927,-62.28,,
1267.942,-63.87,,
1267.957,-63.0,,
1267.972,-62.05,,
1267.987,-61.35,,
1268.002,-61.71,,
1268.017,-62.74,,
1268.032,-61.91,,
1268.047,-60.88,,
1268.062,-60.55,,
1268.077,-60.91,,
1268.092,-61.41,,
1268.107,-61.15,,
1268.122,-60.45,,
1268.137,-60.48,,
1268.152,-60.65,,
1268.167,-61.01,,
1268.182,-60.86,,
1268.197,-60.21,,
1268.212,-60.01,,
1268.227,-60.64,,
1268.242,-60.9,,
1268.257,-60.73,,
1268.272,-60.23,,
1268.287,-59.96,,
1268.302,-60.04,,
1268.317,-61.47,,
1268.332,-61.79,,
1268.347,-61.61,,
1268.362,-61.26,,
1268.377,-61.25,,
1268.392,-62.33,,
1268.407,-62.44,,
1268.422,-62.31,,
1268.437,-62.01,,
1268.452,-62.24,,
1268.467,-62.78,,
1268.482,-62.17,,
1268.497,-62.51,,
1268.512,-62.5,,
1268.527,-62.65,,
1268.542,-62.59,,
1268.557,-62.18,,
1268.572,-62.38,,
1268.587,-61.52,,
1268.602,-61.59,,
1268.617,-61.7,,
1268.632,-60.95,,
1268.647,-61.62,,
1268.662,-61.21,,
1268.677,-61.42,,
1268.692,-61.51,,
1268.707,-61.62,,
1268.722,-61.13,,
1268.737,-60.76,,
1268.752,-60.89,,
1268.767,-60.61,,
1268.782,-60.86,,
1268.797,-60.48,,
1268.812,-60.32,,
1268.827,-60.07,,
1268.842,-60.33,,
1268.857,-60.49,,
1268.872,-59.71,,
1268.887,-59.51,,
1268.902,-59.61,,
1268.917,-59.88,,
1268.932,-60.81,,
1268.947,-60.6,,
1268.962,-60.45,,
1268.977,-60.26,,
1268.992,-60.6,,
1269.007,-61.49,,
1269.022,-61.4,,
1269.037,-60.89,,
1269.052,-60.93,,
1269.067,-61.74,,
1269.082,-62.45,,
1269.097,-62.24,,
1269.112,-62.12,,
1269.127,-61.56,,
1269.142,-62.39,,
1269.157,-63.16,,
1269.172,-62.94,,
1269.188,-62.68,,
1269.202,-62.54,,
1269.217,-64.34,,
1269.232,-64.24,,
1269.247,-63.64,,
1269.262,-63.22,,
1269.277,-63.17,,
1269.292,-63.32,,
1269.307,-65.34,,
1269.323,-64.0,,
1269.338,-62.41,,
1269.352,-62.01,,
1269.367,-62.23,,
1269.382,-63.89,,
1269.397,-63.58,,
1269.412,-62.54,,
1269.427,-61.39,,
1269.443,-61.83,,
1269.458,-62.73,,
1269.473,-62.69,,
1269.487,-62.13,,
1269.502,-61.01,,
1269.517,-60.94,,
1269.532,-61.57,,
1269.547,-62.28,,
1269.563,-62.63,,
1269.578,-61.72,,
1269.593,-61.71,,
1269.608,-62.63,,
1269.623,-63.0,,
1269.637,-63.55,,
1269.652,-62.06,,
1269.667,-62.15,,
1269.682,-63.06,,
1269.698,-63.31,,
1269.713,-63.38,,
1269.728,-62.45,,
1269.743,-62.91,,
1269.758,-64.65,,
1269.772,-67.05,,
1269.787,-64.46,,
1269.802,-63.89,,
1269.818,-63.34,,
1269.833,-65.33,,
1269.848,-67.63,,
1269.863,-64.55,,
1269.878,-64.75,,
1269.893,-65.79,,
1269.908,-67.15,,
1269.922,-68.79,,
1269.938,-65.01,,
1269.953,-63.73,,
1269.968,-64.42,,
1269.983,-66.44,,
1269.998,-67.93,,
1270.013,-65.28,,
1270.028,-63.59,,
1270.043,-63.11,,
1270.058,-65.51,,
1270.073,-65.28,,
1270.088,-63.45,,
1270.103,-62.21,,
1270.118,-61.89,,
1270.133,-63.49,,
1270.148,-62.91,,
1270.163,-62.01,,
1270.178,-61.28,,
1270.193,-61.07,,
1270.208,-61.97,,
1270.223,-61.22,,
1270.238,-60.65,,
1270.253,-59.89,,
1270.268,-60.51,,
1270.283,-60.98,,
1270.298,-61.05,,
1270.313,-60.46,,
1270.328,-59.91,,
1270.343,-60.53,,
1270.358,-60.82,,
1270.373,-60.73,,
1270.388,-60.3,,
1270.403,-59.7,,
1270.418,-60.15,,
1270.433,-60.8,,
1270.448,-60.4,,
1270.463,-59.83,,
1270.478,-59.21,,
1270.493,-59.83,,
1270.508,-60.41,,
1270.523,-61.27,,
1270.538,-60.4,,
1270.553,-60.33,,
1270.568,-60.39,,
1270.583,-60.43,,
1270.598,-61.11,,
1270.613,-60.38,,
1270.628,-60.21,,
1270.643,-60.53,,
1270.658,-61.28,,
1270.673,-61.61,,
1270.688,-60.76,,
1270.703,-61.03,,
1270.718,-61.33,,
1270.733,-61.72,,
1270.748,-61.62,,
1270.763,-60.64,,
1270.778,-60.3,,
1270.793,-60.19,,
1270.808,-60.86,,
1270.823,-60.93,,
1270.838,-60.18,,
1270.853,-60.14,,
1270.868,-60.38,,
1270.883,-61.15,,
1270.898,-60.4,,
1270.913,-60.0,,
1270.928,-59.96,,
1270.943,-60.44,,
1270.958,-61.17,,
1270.973,-60.49,,
1270.988,-60.16,,
1271.003,-59.5,,
1271.018,-59.99,,
1271.033,-60.25,,
1271.048,-60.34,,
1271.063,-59.94,,
1271.078,-59.45,,
1271.093,-60.16,,
1271.108,-60.19,,
1271.123,-60.18,,
1271.138,-59.69,,
1271.153,-59.58,,
1271.168,-60.41,,
1271.183,-60.24,,
1271.198,-60.34,,
1271.213,-59.78,,
1271.228,-59.88,,
1271.243,-60.68,,
1271.258,-60.88,,
1271.273,-60.75,,
1271.288,-60.06,,
1271.303,-60.37,,
1271.318,-61.01,,
1271.333,-61.04,,
1271.348,-61.05,,
1271.363,-60.38,,
1271.378,-61.2,,
1271.393,-61.28,,
1271.408,-62.26,,
1271.423,-61.46,,
1271.438,-60.92,,
1271.453,-62.11,,
1271.468,-61.93,,
1271.483,-63.13,,
1271.498,-62.28,,
1271.513,-61.62,,
1271.528,-61.2,,
1271.543,-61.39,,
1271.558,-61.88,,
1271.573,-60.86,,
1271.588,-61.16,,
1271.603,-61.14,,
1271.618,-61.45,,
1271.633,-61.86,,
1271.648,-60.93,,
1271.663,-60.85,,
1271.678,-60.89,,
1271.693,-60.77,,
1271.708,-60.75,,
1271.723,-60.08,,
1271.738,-59.98,,
1271.753,-59.93,,
1271.768,-60.63,,
1271.783,-60.18,,
1271.798,-60.14,,
1271.813,-59.98,,
1271.828,-60.11,,
1271.843,-61.18,,
1271.858,-60.46,,
1271.873,-60.11,,
1271.888,-60.23,,
1271.903,-60.42,,
1271.918,-61.38,,
1271.933,-60.84,,
1271.948,-60.29,,
1271.963,-60.2,,
1271.978,-60.33,,
1271.993,-60.73,,
1272.008,-60.72,,
1272.023,-60.36,,
1272.038,-60.45,,
1272.053,-60.5,,
1272.068,-60.66,,
1272.083,-60.59,,
1272.098,-60.13,,
1272.113,-60.55,,
1272.128,-60.61,,
1272.143,-60.84,,
1272.158,-60.69,,
1272.173,-60.19,,
1272.188,-60.67,,
1272.203,-60.75,,
1272.218,-61.18,,
1272.233,-60.95,,
1272.248,-60.23,,
1272.263,-60.86,,
1272.278,-60.98,,
1272.293,-61.14,,
1272.308,-60.78,,
1272.323,-60.21,,
1272.338,-60.99,,
1272.353,-60.76,,
1272.368,-60.86,,
1272.383,-60.11,,
1272.398,-60.2,,
1272.413,-60.05,,
1272.428,-60.57,,
1272.443,-60.77,,
1272.458,-59.71,,
1272.473,-60.1,,
1272.488,-60.25,,
1272.503,-60.71,,
1272.518,-60.78,,
1272.533,-60.37,,
1272.548,-60.68,,
1272.563,-61.05,,
1272.578,-62.12,,
1272.593,-61.85,,
1272.608,-61.07,,
1272.623,-61.45,,
1272.638,-62.02,,
1272.653,-63.43,,
1272.668,-62.36,,
1272.683,-61.56,,
1272.698,-62.58,,
1272.713,-62.82,,
1272.728,-64.04,,
1272.743,-63.0,,
1272.758,-62.91,,
1272.773,-63.13,,
1272.788,-63.38,,
1272.803,-64.46,,
1272.818,-63.33,,
1272.833,-62.95,,
1272.848,-62.64,,
1272.863,-62.6,,
1272.878,-63.54,,
1272.893,-62.05,,
1272.908,-62.35,,
1272.923,-62.38,,
1272.938,-62.15,,
1272.953,-62.69,,
1272.968,-61.86,,
1272.983,-62.23,,
1272.998,-62.07,,
1273.013,-61.94,,
1273.028,-61.99,,
1273.043,-61.26,,
1273.058,-62.0,,
1273.073,-61.82,,
1273.088,-62.48,,
1273.103,-62.31,,
1273.118,-61.36,,
1273.133,-62.33,,
1273.148,-61.97,,
1273.163,-62.81,,
1273.178,-62.4,,
1273.193,-61.8,,
1273.208,-62.61,,
1273.223,-62.06,,
1273.238,-62.37,,
1273.253,-62.24,,
1273.268,-61.96,,
1273.283,-62.37,,
1273.298,-61.92,,
1273.313,-62.05,,
1273.328,-61.85,,
1273.343,-61.59,,
1273.358,-62.03,,
1273.373,-61.46,,
1273.388,-61.89,,
1273.403,-61.53,,
1273.418,-61.51,,
1273.433,-61.57,,
1273.448,-60.9,,
1273.463,-61.78,,
1273.478,-61.55,,
1273.493,-61.71,,
1273.508,-61.33,,
1273.523,-60.96,,
1273.538,-61.13,,
1273.553,-60.97,,
1273.568,-60.89,,
1273.583,-60.41,,
1273.598,-60.03,,
1273.613,-60.15,,
1273.628,-60.25,,
1273.643,-60.3,,
1273.658,-59.55,,
1273.673,-59.41,,
1273.688,-59.35,,
1273.703,-59.17,,
1273.718,-59.56,,
1273.733,-58.94,,
1273.748,-59.27,,
1273.763,-59.14,,
1273.778,-59.07,,
1273.793,-59.23,,
1273.808,-58.85,,
1273.823,-59.06,,
1273.838,-59.13,,
1273.853,-58.88,,
1273.868,-59.11,,
1273.883,-58.8,,
1273.898,-59.08,,
1273.913,-58.76,,
1273.928,-58.5,,
1273.943,-58.87,,
1273.958,-58.76,,
1273.973,-58.99,,
1273.988,-58.65,,
1274.003,-58.54,,
1274.018,-58.77,,
1274.033,-58.78,,
1274.048,-58.76,,
1274.063,-58.47,,
1274.078,-58.78,,
1274.093,-58.59,,
1274.108,-58.38,,
1274.123,-58.54,,
1274.138,-58.0,,
1274.153,-58.4,,
1274.168,-58.39,,
1274.183,-58.33,,
1274.198,-58.34,,
1274.213,-58.08,,
1274.228,-58.48,,
1274.243,-58.27,,
1274.258,-58.26,,
1274.273,-58.07,,
1274.288,-57.91,,
1274.303,-58.3,,
1274.318,-58.25,,
1274.333,-58.19,,
1274.348,-57.98,,
1274.363,-57.75,,
1274.378,-58.22,,
1274.393,-58.08,,
1274.408,-58.27,,
1274.423,-58.07,,
1274.438,-57.89,,
1274.453,-58.41,,
1274.468,-58.22,,
1274.483,-58.22,,
1274.498,-57.99,,
1274.513,-58.04,,
1274.528,-58.41,,
1274.543,-58.31,,
1274.558,-58.56,,
1274.573,-58.18,,
1274.588,-58.16,,
1274.603,-58.54,,
1274.618,-58.49,,
1274.633,-58.46,,
1274.648,-57.91,,
1274.663,-57.9,,
1274.678,-58.34,,
1274.693,-58.38,,
1274.708,-58.4,,
1274.723,-57.99,,
1274.738,-58.39,,
1274.753,-58.34,,
1274.768,-58.35,,
1274.783,-58.08,,
1274.798,-57.82,,
1274.813,-58.22,,
1274.828,-58.45,,
1274.843,-58.38,,
1274.858,-58.35,,
1274.873,-57.96,,
1274.888,-58.26,,
1274.903,-58.42,,
1274.918,-58.57,,
1274.933,-58.51,,
1274.948,-57.98,,
1274.963,-58.34,,
1274.978,-58.42,,
1274.993,-58.53,,
1275.008,-58.26,,
1275.023,-58.11,,
1275.038,-58.58,,
1275.053,-58.67,,
1275.068,-58.97,,
1275.083,-58.57,,
1275.098,-58.52,,
1275.113,-59.16,,
1275.128,-59.05,,
1275.143,-59.58,,
1275.158,-59.11,,
1275.173,-58.95,,
1275.188,-59.37,,
1275.203,-59.28,,
1275.218,-59.15,,
1275.233,-58.77,,
1275.248,-59.06,,
1275.263,-59.44,,
1275.278,-59.46,,
1275.293,-59.35,,
1275.308,-58.79,,
1275.323,-59.02,,
1275.338,-59.38,,
1275.353,-59.27,,
1275.368,-59.16,,
1275.383,-58.93,,
1275.398,-59.53,,
1275.413,-59.39,,
1275.428,-59.33,,
1275.443,-59.28,,
1275.458,-59.03,,
1275.473,-59.59,,
1275.488,-59.45,,
1275.503,-59.58,,
1275.518,-59.23,,
1275.533,-58.97,,
1275.548,-59.47,,
1275.563,-59.25,,
1275.578,-59.41,,
1275.593,-59.1,,
1275.608,-58.88,,
1275.623,-59.28,,
1275.638,-59.04,,
1275.653,-59.38,,
1275.668,-59.4,,
1275.683,-59.24,,
1275.698,-59.51,,
1275.713,-59.3,,
1275.728,-59.42,,
1275.743,-59.17,,
1275.758,-59.16,,
1275.773,-59.46,,
1275.788,-59.62,,
1275.803,-59.7,,
1275.818,-59.25,,
1275.833,-59.18,,
1275.848,-59.33,,
1275.863,-59.29,,
1275.878,-59.37,,
1275.893,-59.29,,
1275.908,-59.42,,
1275.923,-59.35,,
1275.938,-59.12,,
1275.953,-59.33,,
1275.968,-59.06,,
1275.983,-59.12,,
1275.998,-59.02,,
1276.013,-59.12,,
1276.028,-59.08,,
1276.043,-58.98,,
1276.058,-59.23,,
1276.073,-58.92,,
1276.088,-58.99,,
1276.103,-58.83,,
1276.118,-58.8,,
1276.133,-59.33,,
1276.148,-58.95,,
1276.163,-59.03,,
1276.178,-58.77,,
1276.193,-58.8,,
1276.208,-59.15,,
1276.223,-59.16,,
1276.238,-59.11,,
1276.253,-58.53,,
1276.268,-58.46,,
1276.283,-58.93,,
1276.298,-58.88,,
1276.313,-59.01,,
1276.328,-58.65,,
1276.343,-58.58,,
1276.358,-59.08,,
1276.373,-59.11,,
1276.388,-59.16,,
1276.403,-58.55,,
1276.418,-58.88,,
1276.433,-59.35,,
1276.448,-59.46,,
1276.463,-59.35,,
1276.478,-58.61,,
1276.493,-58.79,,
1276.508,-59.14,,
1276.523,-59.18,,
1276.538,-59.18,,
1276.553,-58.47,,
1276.568,-58.37,,
1276.583,-58.87,,
1276.598,-58.91,,
1276.613,-58.77,,
1276.628,-58.25,,
1276.643,-58.62,,
1276.658,-58.94,,
1276.673,-58.94,,
1276.688,-58.64,,
1276.703,-58.4,,
1276.718,-58.9,,
1276.733,-59.19,,
1276.748,-58.99,,
1276.763,-58.7,,
1276.778,-58.52,,
1276.793,-58.92,,
1276.808,-58.89,,
1276.823,-59.04,,
1276.838,-58.8,,
1276.853,-58.47,,
1276.868,-58.64,,
1276.883,-59.04,,
1276.898,-58.89,,
1276.913,-58.64,,
1276.928,-58.94,,
1276.943,-59.43,,
1276.958,-59.8,,
1276.973,-59.62,,
1276.988,-59.24,,
1277.003,-59.82,,
1277.018,-60.29,,
1277.033,-60.57,,
1277.048,-60.11,,
1277.063,-59.83,,
1277.078,-60.51,,
1277.093,-61.01,,
1277.108,-60.97,,
1277.123,-60.5,,
1277.138,-60.19,,
1277.153,-60.49,,
1277.168,-60.1,,
1277.183,-60.36,,
1277.198,-59.93,,
1277.214,-59.85,,
1277.228,-60.05,,
1277.243,-59.7,,
1277.258,-60.19,,
1277.273,-60.14,,
1277.288,-60.17,,
1277.303,-60.25,,
1277.318,-59.92,,
1277.333,-59.93,,
1277.349,-60.0,,
1277.364,-60.25,,
1277.378,-60.13,,
1277.393,-60.1,,
1277.408,-60.36,,
1277.423,-60.16,,
1277.438,-60.27,,
1277.453,-59.87,,
1277.469,-59.79,,
1277.484,-60.48,,
1277.499,-60.59,,
1277.514,-60.54,,
1277.528,-60.17,,
1277.543,-60.1,,
1277.558,-61.13,,
1277.573,-61.94,,
1277.589,-61.63,,
1277.604,-61.24,,
1277.619,-61.23,,
1277.634,-62.83,,
1277.649,-62.81,,
1277.663,-62.72,,
1277.678,-62.41,,
1277.693,-62.52,,
1277.708,-63.64,,
1277.724,-63.86,,
1277.739,-63.85,,
1277.754,-63.81,,
1277.769,-63.95,,
1277.784,-66.15,,
1277.799,-64.26,,
1277.813,-64.51,,
1277.828,-63.66,,
1277.844,-63.39,,
1277.859,-65.42,,
1277.874,-64.92,,
1277.889,-64.34,,
1277.904,-64.28,,
1277.919,-64.5,,
1277.934,-64.7,,
1277.948,-63.36,,
1277.964,-62.47,,
1277.979,-62.34,,
1277.994,-63.5,,
1278.009,-63.83,,
1278.024,-62.28,,
1278.039,-61.64,,
1278.054,-61.79,,
1278.069,-62.11,,
1278.084,-62.14,,
1278.099,-60.96,,
1278.114,-60.98,,
1278.129,-60.98,,
1278.144,-60.95,,
1278.159,-60.97,,
1278.174,-60.76,,
1278.189,-60.99,,
1278.204,-61.2,,
1278.219,-61.46,,
1278.234,-61.42,,
1278.249,-61.56,,
1278.264,-61.67,,
1278.279,-62.08,,
1278.294,-62.03,,
1278.309,-61.43,,
1278.324,-61.48,,
1278.339,-62.27,,
1278.354,-64.27,,
1278.369,-63.42,,
1278.384,-63.76,,
1278.399,-63.27,,
1278.414,-64.01,,
1278.429,-65.31,,
1278.444,-64.69,,
1278.459,-65.18,,
1278.474,-64.97,,
1278.489,-63.93,,
1278.504,-65.38,,
1278.519,-65.07,,
1278.534,-65.59,,
1278.549,-65.86,,
1278.564,-65.03,,
1278.579,-65.61,,
1278.594,-63.2,,
1278.609,-63.73,,
1278.624,-64.15,,
1278.639,-63.47,,
1278.654,-64.4,,
1278.669,-62.73,,
1278.684,-63.01,,
1278.699,-62.95,,
1278.714,-63.4,,
1278.729,-63.24,,
1278.744,-61.79,,
1278.759,-61.85,,
1278.774,-62.0,,
1278.789,-61.62,,
1278.804,-62.09,,
1278.819,-61.3,,
1278.834,-61.7,,
1278.849,-61.62,,
1278.864,-61.53,,
1278.879,-62.1,,
1278.894,-61.45,,
1278.909,-61.61,,
1278.924,-61.54,,
1278.939,-61.59,,
1278.954,-61.95,,
1278.969,-61.65,,
1278.984,-62.23,,
1278.999,-61.93,,
1279.014,-61.89,,
1279.029,-62.27,,
1279.044,-62.37,,
1279.059,-63.02,,
1279.074,-62.8,,
1279.089,-62.08,,
1279.104,-62.76,,
1279.119,-62.34,,
1279.134,-63.04,,
1279.149,-63.78,,
1279.164,-63.16,,
1279.179,-63.96,,
1279.194,-63.19,,
1279.209,-63.98,,
1279.224,-64.14,,
1279.239,-64.25,,
1279.254,-64.25,,
1279.269,-64.16,,
1279.284,-64.83,,
1279.299,-65.05,,
1279.314,-66.51,,
1279.329,-67.6,,
1279.344,-66.31,,
1279.359,-64.7,,
1279.374,-64.44,,
1279.389,-64.56,,
1279.404,-64.77,,
1279.419,-64.22,,
1279.434,-64.16,,
1279.449,-63.52,,
1279.464,-62.39,,
1279.479,-62.56,,
1279.494,-62.82,,
1279.509,-63.01,,
1279.524,-62.37,,
1279.539,-61.73,,
1279.554,-61.7,,
1279.569,-61.42,,
1279.584,-61.46,,
1279.599,-61.77,,
1279.614,-61.76,,
1279.629,-61.71,,
1279.644,-61.61,,
1279.659,-61.28,,
1279.674,-61.56,,
1279.689,-61.06,,
1279.704,-61.29,,
1279.719,-60.83,,
1279.734,-60.91,,
1279.749,-61.04,,
1279.764,-60.57,,
1279.779,-60.87,,
1279.794,-60.76,,
1279.809,-60.91,,
1279.824,-61.1,,
1279.839,-60.5,,
1279.854,-61.27,,
1279.869,-61.28,,
1279.884,-60.9,,
1279.899,-60.87,,
1279.914,-60.6,,
1279.929,-61.34,,
1279.944,-60.67,,
1279.959,-60.76,,
1279.974,-61.0,,
1279.989,-60.87,,
1280.004,-61.5,,
1280.019,-61.28,,
1280.034,-61.18,,
1280.049,-61.41,,
1280.064,-61.03,,
1280.079,-60.98,,
1280.094,-61.98,,
1280.109,-62.02,,
1280.124,-62.86,,
1280.139,-62.28,,
1280.154,-61.84,,
1280.169,-62.37,,
1280.184,-62.49,,
1280.199,-62.92,,
1280.214,-62.76,,
1280.229,-62.47,,
1280.244,-62.38,,
1280.259,-62.9,,
1280.274,-63.03,,
1280.289,-62.68,,
1280.304,-62.75,,
1280.319,-62.4,,
1280.334,-61.78,,
1280.349,-62.31,,
1280.364,-61.76,,
1280.379,-61.85,,
1280.394,-61.68,,
1280.409,-61.21,,
1280.424,-61.34,,
1280.439,-60.99,,
1280.454,-61.15,,
1280.469,-61.85,,
1280.484,-62.01,,
1280.499,-62.29,,
1280.514,-61.63,,
1280.529,-61.71,,
1280.544,-62.44,,
1280.559,-62.42,,
1280.574,-62.64,,
1280.589,-61.84,,
1280.604,-62.53,,
1280.619,-62.8,,
1280.634,-62.4,,
1280.649,-62.84,,
1280.664,-62.27,,
1280.679,-62.4,,
1280.694,-62.74,,
1280.709,-62.25,,
1280.724,-62.7,,
1280.739,-61.83,,
1280.754,-62.65,,
1280.769,-63.29,,
1280.784,-62.98,,
1280.799,-63.99,,
1280.814,-63.24,,
1280.829,-63.61,,
1280.844,-64.39,,
1280.859,-63.76,,
1280.874,-64.26,,
1280.889,-64.87,,
1280.904,-66.64,,
1280.919,-67.74,,
1280.934,-65.1,,
1280.949,-68.79,,
1280.964,-68.57,,
1280.979,-71.24,,
1280.994,-72.06,,
1281.009,-67.93,,
1281.024,-66.52,,
1281.039,-66.36,,
1281.054,-67.09,,
1281.069,-67.3,,
1281.084,-67.55,,
1281.099,-66.64,,
1281.114,-65.89,,
1281.129,-65.19,,
1281.144,-65.65,,
1281.159,-65.61,,
1281.174,-65.03,,
1281.189,-64.1,,
1281.204,-63.37,,
1281.219,-63.6,,
1281.234,-64.12,,
1281.249,-63.98,,
1281.264,-63.06,,
1281.279,-62.13,,
1281.294,-62.29,,
1281.309,-61.89,,
1281.324,-61.92,,
1281.339,-62.26,,
1281.354,-61.85,,
1281.369,-62.23,,
1281.384,-61.97,,
1281.399,-62.0,,
1281.414,-61.92,,
1281.429,-61.92,,
1281.444,-62.94,,
1281.459,-62.38,,
1281.474,-62.22,,
1281.489,-61.7,,
1281.504,-61.51,,
1281.519,-62.58,,
1281.534,-62.06,,
1281.549,-62.06,,
1281.564,-61.83,,
1281.579,-62.06,,
1281.594,-62.94,,
1281.609,-62.74,,
1281.624,-62.65,,
1281.639,-63.23,,
1281.654,-62.64,,
1281.669,-63.4,,
1281.684,-63.57,,
1281.699,-64.14,,
1281.714,-64.45,,
1281.729,-64.04,,
1281.744,-65.69,,
1281.759,-65.1,,
1281.774,-63.73,,
1281.789,-64.13,,
1281.804,-63.31,,
1281.819,-63.86,,
1281.834,-63.56,,
1281.849,-63.36,,
1281.864,-63.51,,
1281.879,-62.74,,
1281.894,-62.81,,
1281.909,-62.04,,
1281.924,-61.59,,
1281.939,-62.27,,
1281.954,-62.54,,
1281.969,-62.55,,
1281.984,-61.74,,
1281.999,-61.19,,
1282.014,-61.79,,
1282.029,-62.56,,
1282.044,-62.75,,
1282.059,-62.1,,
1282.074,-61.55,,
1282.089,-62.28,,
1282.104,-62.91,,
1282.119,-61.99,,
1282.134,-61.32,,
1282.149,-60.94,,
1282.164,-61.94,,
1282.179,-61.96,,
1282.194,-61.23,,
1282.209,-61.42,,
1282.224,-61.45,,
1282.239,-62.23,,
1282.254,-61.81,,
1282.269,-60.96,,
1282.284,-61.44,,
1282.299,-61.94,,
1282.314,-62.79,,
1282.329,-62.23,,
1282.344,-61.32,,
1282.359,-61.64,,
1282.374,-62.73,,
1282.389,-63.35,,
1282.404,-62.43,,
1282.419,-62.06,,
1282.434,-62.96,,
1282.449,-63.33,,
1282.464,-63.08,,
1282.479,-62.75,,
1282.494,-62.4,,
1282.509,-63.57,,
1282.524,-63.72,,
1282.539,-63.25,,
1282.554,-61.99,,
1282.569,-61.89,,
1282.584,-62.8,,
1282.599,-63.1,,
1282.614,-62.04,,
1282.629,-61.2,,
1282.644,-60.72,,
1282.659,-61.43,,
1282.674,-61.71,,
1282.689,-61.17,,
1282.704,-60.36,,
1282.719,-61.08,,
1282.734,-61.85,,
1282.749,-61.93,,
1282.764,-60.69,,
1282.779,-61.19,,
1282.794,-62.02,,
1282.809,-62.49,,
1282.824,-62.84,,
1282.839,-61.44,,
1282.854,-61.31,,
1282.869,-62.3,,
1282.884,-62.92,,
1282.899,-62.05,,
1282.914,-61.24,,
1282.929,-61.53,,
1282.944,-62.76,,
1282.959,-61.85,,
1282.974,-60.98,,
1282.989,-60.3,,
1283.004,-60.72,,
1283.019,-61.36,,
1283.034,-60.71,,
1283.049,-59.91,,
1283.064,-60.06,,
1283.079,-60.21,,
1283.094,-60.8,,
1283.109,-60.15,,
1283.124,-60.26,,
1283.139,-60.95,,
1283.154,-61.66,,
1283.169,-61.54,,
1283.184,-60.54,,
1283.199,-60.81,,
1283.214,-61.6,,
1283.229,-61.81,,
1283.244,-60.76,,
1283.259,-60.23,,
1283.274,-60.65,,
1283.289,-61.13,,
1283.304,-61.15,,
1283.319,-60.52,,
1283.334,-59.89,,
1283.349,-60.5,,
1283.364,-61.03,,
1283.379,-60.46,,
1283.394,-59.99,,
1283.409,-60.21,,
1283.424,-60.69,,
1283.439,-61.11,,
1283.454,-60.32,,
1283.469,-60.14,,
1283.484,-60.54,,
1283.499,-61.08,,
1283.514,-61.14,,
1283.529,-60.25,,
1283.544,-60.29,,
1283.559,-61.11,,
1283.574,-61.39,,
1283.589,-61.08,,
1283.604,-59.94,,
1283.619,-60.31,,
1283.634,-61.15,,
1283.649,-61.3,,
1283.664,-60.88,,
1283.679,-60.15,,
1283.694,-60.08,,
1283.709,-60.82,,
1283.724,-60.55,,
1283.739,-59.83,,
1283.754,-59.44,,
1283.769,-59.42,,
1283.784,-60.13,,
1283.799,-59.89,,
1283.814,-59.68,,
1283.829,-59.06,,
1283.844,-59.64,,
1283.859,-60.04,,
1283.874,-59.85,,
1283.889,-59.32,,
1283.904,-59.47,,
1283.919,-60.26,,
1283.934,-60.67,,
1283.949,-60.03,,
1283.964,-59.63,,
1283.979,-60.01,,
1283.994,-60.86,,
1284.009,-60.88,,
1284.024,-60.18,,
1284.039,-59.94,,
1284.054,-60.69,,
1284.069,-60.75,,
1284.084,-60.63,,
1284.099,-60.28,,
1284.114,-59.95,,
1284.129,-60.64,,
1284.144,-60.03,,
1284.159,-59.56,,
1284.174,-59.31,,
1284.189,-60.03,,
1284.204,-60.36,,
1284.219,-59.81,,
1284.234,-59.46,,
1284.249,-59.73,,
1284.264,-60.53,,
1284.279,-61.16,,
1284.294,-60.75,,
1284.309,-60.32,,
1284.324,-60.53,,
1284.339,-61.7,,
1284.354,-61.27,,
1284.369,-61.04,,
1284.384,-60.45,,
1284.399,-61.16,,
1284.414,-61.63,,
1284.429,-61.13,,
1284.444,-60.22,,
1284.459,-60.09,,
1284.474,-60.7,,
1284.489,-60.64,,
1284.504,-60.24,,
1284.519,-59.77,,
1284.534,-59.86,,
1284.549,-60.29,,
1284.564,-60.19,,
1284.579,-59.68,,
1284.594,-59.52,,
1284.609,-60.48,,
1284.624,-60.86,,
1284.639,-60.39,,
1284.654,-59.99,,
1284.669,-60.08,,
1284.684,-61.0,,
1284.699,-61.76,,
1284.714,-61.68,,
1284.729,-60.85,,
1284.744,-61.21,,
1284.759,-62.14,,
1284.774,-62.95,,
1284.789,-61.74,,
1284.804,-60.92,,
1284.819,-60.81,,
1284.834,-61.77,,
1284.849,-61.58,,
1284.864,-60.85,,
1284.879,-60.29,,
1284.894,-60.62,,
1284.909,-61.14,,
1284.924,-60.8,,
1284.939,-60.21,,
1284.954,-60.15,,
1284.969,-60.55,,
1284.984,-60.99,,
1284.999,-60.57,,
1285.014,-60.2,,
1285.029,-60.52,,
1285.044,-61.59,,
1285.059,-62.0,,
1285.074,-61.07,,
1285.089,-61.13,,
1285.104,-61.35,,
1285.119,-62.39,,
1285.134,-61.18,,
1285.149,-60.91,,
1285.164,-60.96,,
1285.179,-61.54,,
1285.194,-61.54,,
1285.209,-60.84,,
1285.224,-60.52,,
1285.24,-60.82,,
1285.255,-61.39,,
1285.269,-60.9,,
1285.284,-60.03,,
1285.299,-59.82,,
1285.314,-59.99,,
1285.329,-60.69,,
1285.344,-60.0,,
1285.359,-59.98,,
1285.375,-59.81,,
1285.39,-60.89,,
1285.404,-61.31,,
1285.419,-60.47,,
1285.434,-60.17,,
1285.449,-60.65,,
1285.464,-61.53,,
1285.479,-62.1,,
1285.495,-61.37,,
1285.51,-60.9,,
1285.525,-61.8,,
1285.54,-62.48,,
1285.554,-61.77,,
1285.569,-60.89,,
1285.584,-61.03,,
1285.599,-61.59,,
1285.615,-61.55,,
1285.63,-60.93,,
1285.645,-60.46,,
1285.66,-60.69,,
1285.675,-61.48,,
1285.689,-61.15,,
1285.704,-60.45,,
1285.719,-60.14,,
1285.734,-60.94,,
1285.75,-61.68,,
1285.765,-60.82,,
1285.78,-60.2,,
1285.795,-60.39,,
1285.81,-61.1,,
1285.825,-62.15,,
1285.839,-61.65,,
1285.854,-60.85,,
1285.87,-61.4,,
1285.885,-62.35,,
1285.9,-62.03,,
1285.915,-61.65,,
1285.93,-61.3,,
1285.945,-61.89,,
1285.96,-62.31,,
1285.974,-62.11,,
1285.99,-61.58,,
1286.005,-60.86,,
1286.02,-61.81,,
1286.035,-61.81,,
1286.05,-60.92,,
1286.065,-60.51,,
1286.08,-61.01,,
1286.095,-61.56,,
1286.11,-61.18,,
1286.125,-60.43,,
1286.14,-60.97,,
1286.155,-61.19,,
1286.17,-62.2,,
1286.185,-61.72,,
1286.2,-60.91,,
1286.215,-61.75,,
1286.23,-62.01,,
1286.245,-61.85,,
1286.26,-61.15,,
1286.275,-61.05,,
1286.29,-62.16,,
1286.305,-62.33,,
1286.32,-62.35,,
1286.335,-61.85,,
1286.35,-61.46,,
1286.365,-62.68,,
1286.38,-62.48,,
1286.395,-61.52,,
1286.41,-61.28,,
1286.425,-61.48,,
1286.44,-62.26,,
1286.455,-61.85,,
1286.47,-61.03,,
1286.485,-61.02,,
1286.5,-61.04,,
1286.515,-61.92,,
1286.53,-61.02,,
1286.545,-60.77,,
1286.56,-61.52,,
1286.575,-61.99,,
1286.59,-62.07,,
1286.605,-62.09,,
1286.62,-61.65,,
1286.635,-62.53,,
1286.65,-62.66,,
1286.665,-62.61,,
1286.68,-61.72,,
1286.695,-62.11,,
1286.71,-63.23,,
1286.725,-63.3,,
1286.74,-62.1,,
1286.755,-61.5,,
1286.77,-62.16,,
1286.785,-62.27,,
1286.8,-62.77,,
1286.815,-62.01,,
1286.83,-61.9,,
1286.845,-62.35,,
1286.86,-62.2,,
1286.875,-62.0,,
1286.89,-60.96,,
1286.905,-61.68,,
1286.92,-62.23,,
1286.935,-61.99,,
1286.95,-61.96,,
1286.965,-62.02,,
1286.98,-62.18,,
1286.995,-62.06,,
1287.01,-62.19,,
1287.025,-61.81,,
1287.04,-61.98,,
1287.055,-61.82,,
1287.07,-61.83,,
1287.085,-61.01,,
1287.1,-60.87,,
1287.115,-61.14,,
1287.13,-61.19,,
1287.145,-61.11,,
1287.16,-61.69,,
1287.175,-61.41,,
1287.19,-61.74,,
1287.205,-61.72,,
1287.22,-61.27,,
1287.235,-61.94,,
1287.25,-61.92,,
1287.265,-62.56,,
1287.28,-62.39,,
1287.295,-62.1,,
1287.31,-62.81,,
1287.325,-62.64,,
1287.34,-62.03,,
1287.355,-62.61,,
1287.37,-62.11,,
1287.385,-62.62,,
1287.4,-62.8,,
1287.415,-62.6,,
1287.43,-62.86,,
1287.445,-62.35,,
1287.46,-62.73,,
1287.475,-62.83,,
1287.49,-62.68,,
1287.505,-63.12,,
1287.52,-62.07,,
1287.535,-62.16,,
1287.55,-61.87,,
1287.565,-61.79,,
1287.58,-62.29,,
1287.595,-62.25,,
1287.61,-61.87,,
1287.625,-62.35,,
1287.64,-62.16,,
1287.655,-62.3,,
1287.67,-62.03,,
1287.685,-62.29,,
1287.7,-62.62,,
1287.715,-61.83,,
1287.73,-61.41,,
1287.745,-61.31,,
1287.76,-61.68,,
1287.775,-61.37,,
1287.79,-61.37,,
1287.805,-60.91,,
1287.82,-61.69,,
1287.835,-61.32,,
1287.85,-61.22,,
1287.865,-61.29,,
1287.88,-61.35,,
1287.895,-62.35,,
1287.91,-62.25,,
1287.925,-62.2,,
1287.94,-62.41,,
1287.955,-62.08,,
1287.97,-62.14,,
1287.985,-62.39,,
1288.0,-61.66,,
1288.015,-62.07,,
1288.03,-62.1,,
1288.045,-62.34,,
1288.06,-62.68,,
1288.075,-62.16,,
1288.09,-62.71,,
1288.105,-63.64,,
1288.12,-63.81,,
1288.135,-63.68,,
1288.15,-63.57,,
1288.165,-63.29,,
1288.18,-63.31,,
1288.195,-62.23,,
1288.21,-62.27,,
1288.225,-62.49,,
1288.24,-62.54,,
1288.255,-62.49,,
1288.27,-61.71,,
1288.285,-62.33,,
1288.3,-61.99,,
1288.315,-61.56,,
1288.33,-61.49,,
1288.345,-61.53,,
1288.36,-61.85,,
1288.375,-62.34,,
1288.39,-61.31,,
1288.405,-61.26,,
1288.42,-61.28,,
1288.435,-61.16,,
1288.45,-61.2,,
1288.465,-60.65,,
1288.48,-61.05,,
1288.495,-60.83,,
1288.51,-60.9,,
1288.525,-60.97,,
1288.54,-60.86,,
1288.555,-61.68,,
1288.57,-62.38,,
1288.585,-61.79,,
1288.6,-61.86,,
1288.615,-61.81,,
1288.63,-61.71,,
1288.645,-61.84,,
1288.66,-60.84,,
1288.675,-61.24,,
1288.69,-61.26,,
1288.705,-60.57,,
1288.72,-61.16,,
1288.735,-60.95,,
1288.75,-61.05,,
1288.765,-61.21,,
1288.78,-60.79,,
1288.795,-61.47,,
1288.81,-61.5,,
1288.825,-60.94,,
1288.84,-61.75,,
1288.855,-61.67,,
1288.87,-62.26,,
1288.885,-62.54,,
1288.9,-61.67,,
1288.915,-61.86,,
1288.93,-62.2,,
1288.945,-61.51,,
1288.96,-61.9,,
1288.975,-61.22,,
1288.99,-60.98,,
1289.005,-61.89,,
1289.02,-61.56,,
1289.035,-61.29,,
1289.05,-61.2,,
1289.065,-61.32,,
1289.08,-62.6,,
1289.095,-62.53,,
1289.11,-61.39,,
1289.125,-61.2,,
1289.14,-61.65,,
1289.155,-62.44,,
1289.17,-61.54,,
1289.185,-60.85,,
1289.2,-61.81,,
1289.215,-62.19,,
1289.23,-62.06,,
1289.245,-60.98,,
1289.26,-60.58,,
1289.275,-61.61,,
1289.29,-61.54,,
1289.305,-61.22,,
1289.32,-61.03,,
1289.335,-60.98,,
1289.35,-62.0,,
1289.365,-61.72,,
1289.38,-60.66,,
1289.395,-60.84,,
1289.41,-61.6,,
1289.425,-61.51,,
1289.44,-61.17,,
1289.455,-60.67,,
1289.47,-61.01,,
1289.485,-61.43,,
1289.5,-61.46,,
1289.515,-60.73,,
1289.53,-60.36,,
1289.545,-60.79,,
1289.56,-61.1,,
1289.575,-60.39,,
1289.59,-59.73,,
1289.605,-59.61,,
1289.62,-59.93,,
1289.635,-60.6,,
1289.65,-60.09,,
1289.665,-60.08,,
1289.68,-59.99,,
1289.695,-60.74,,
1289.71,-61.88,,
1289.725,-60.99,,
1289.74,-60.64,,
1289.755,-61.35,,
1289.77,-62.16,,
1289.785,-61.97,,
1289.8,-61.09,,
1289.815,-61.12,,
1289.83,-61.88,,
1289.845,-61.96,,
1289.86,-61.1,,
1289.875,-60.16,,
1289.89,-60.3,,
1289.905,-60.91,,
1289.92,-61.12,,
1289.935,-60.04,,
1289.95,-60.06,,
1289.965,-60.84,,
1289.98,-61.06,,
1289.995,-61.23,,
1290.01,-60.26,,
1290.025,-60.41,,
1290.04,-61.75,,
1290.055,-61.1,,
1290.07,-60.51,,
1290.085,-59.78,,
1290.1,-59.89,,
1290.115,-60.76,,
1290.13,-60.35,,
1290.145,-59.69,,
1290.16,-59.64,,
1290.175,-60.22,,
1290.19,-61.16,,
1290.205,-60.26,,
1290.22,-59.89,,
1290.235,-60.62,,
1290.25,-60.89,,
1290.265,-60.78,,
1290.28,-60.08,,
1290.295,-59.96,,
1290.31,-61.09,,
1290.325,-60.66,,
1290.34,-60.48,,
1290.355,-60.09,,
1290.37,-60.02,,
1290.385,-61.01,,
1290.4,-60.95,,
1290.415,-60.13,,
1290.43,-60.69,,
1290.445,-61.06,,
1290.46,-60.87,,
1290.475,-60.9,,
1290.49,-60.21,,
1290.505,-60.66,,
1290.52,-61.38,,
1290.535,-61.18,,
1290.55,-60.94,,
1290.565,-60.29,,
1290.58,-60.92,,
1290.595,-61.58,,
1290.61,-61.3,,
1290.625,-60.87,,
1290.64,-60.59,,
1290.655,-60.92,,
1290.67,-62.22,,
1290.685,-61.87,,
1290.7,-61.19,,
1290.715,-60.78,,
1290.73,-61.15,,
1290.745,-61.34,,
1290.76,-61.24,,
1290.775,-60.32,,
1290.79,-60.73,,
1290.805,-60.95,,
1290.82,-60.89,,
1290.835,-60.82,,
1290.85,-60.84,,
1290.865,-60.77,,
1290.88,-61.22,,
1290.895,-60.64,,
1290.91,-60.59,,
1290.925,-60.87,,
1290.94,-60.7,,
1290.955,-61.02,,
1290.97,-60.73,,
1290.985,-60.83,,
1291.0,-60.73,,
1291.015,-60.88,,
1291.03,-60.8,,
1291.045,-60.76,,
1291.06,-61.26,,
1291.075,-61.19,,
1291.09,-61.3,,
1291.105,-61.09,,
1291.12,-61.28,,
1291.135,-61.29,,
1291.15,-61.45,,
1291.165,-61.2,,
1291.18,-61.61,,
1291.195,-61.25,,
1291.21,-61.02,,
1291.225,-61.25,,
1291.24,-60.98,,
1291.255,-60.98,,
1291.27,-61.0,,
1291.285,-61.09,,
1291.3,-61.07,,
1291.315,-60.89,,
1291.33,-60.91,,
1291.345,-61.02,,
1291.36,-60.84,,
1291.375,-62.04,,
1291.39,-60.98,,
1291.405,-61.14,,
1291.42,-61.21,,
1291.435,-60.95,,
1291.45,-61.02,,
1291.465,-61.25,,
1291.48,-60.63,,
1291.495,-60.77,,
1291.51,-60.77,,
1291.525,-60.69,,
1291.54,-60.56,,
1291.555,-60.52,,
1291.57,-61.52,,
1291.585,-61.18,,
1291.6,-60.97,,
1291.615,-60.56,,
1291.63,-61.05,,
1291.645,-61.59,,
1291.66,-61.13,,
1291.675,-59.93,,
1291.69,-60.06,,
1291.705,-60.34,,
1291.72,-60.97,,
1291.735,-60.24,,
1291.75,-60.1,,
1291.765,-60.3,,
1291.78,-60.95,,
1291.795,-60.11,,
1291.81,-59.71,,
1291.825,-59.94,,
1291.84,-60.21,,
1291.855,-60.15,,
1291.87,-59.94,,
1291.885,-59.7,,
1291.9,-60.51,,
1291.915,-60.93,,
1291.93,-60.39,,
1291.945,-60.07,,
1291.96,-60.25,,
1291.975,-60.55,,
1291.99,-60.28,,
1292.005,-59.83,,
1292.02,-59.69,,
1292.035,-59.96,,
1292.05,-60.16,,
1292.065,-59.31,,
1292.08,-59.5,,
1292.095,-59.83,,
1292.11,-60.4,,
1292.125,-60.09,,
1292.14,-59.64,,
1292.155,-59.73,,
1292.17,-60.28,,
1292.185,-59.92,,
1292.2,-59.28,,
1292.215,-59.49,,
1292.23,-59.72,,
1292.245,-60.1,,
1292.26,-59.59,,
1292.275,-59.52,,
1292.29,-59.99,,
1292.305,-60.76,,
1292.32,-60.13,,
1292.335,-59.81,,
1292.35,-59.82,,
1292.365,-60.5,,
1292.38,-60.07,,
1292.395,-59.71,,
1292.41,-59.46,,
1292.425,-60.16,,
1292.44,-60.62,,
1292.455,-60.6,,
1292.47,-59.92,,
1292.485,-60.12,,
1292.5,-61.07,,
1292.515,-61.43,,
1292.53,-60.34,,
1292.545,-60.14,,
1292.56,-60.38,,
1292.575,-60.64,,
1292.59,-60.4,,
1292.605,-59.76,,
1292.62,-60.22,,
1292.635,-61.01,,
1292.65,-61.03,,
1292.665,-60.85,,
1292.68,-60.82,,
1292.695,-60.93,,
1292.71,-61.83,,
1292.725,-60.71,,
1292.74,-60.62,,
1292.755,-60.36,,
1292.77,-60.76,,
1292.785,-60.71,,
1292.8,-60.79,,
1292.815,-60.85,,
1292.83,-61.2,,
1292.845,-61.4,,
1292.86,-61.55,,
1292.875,-61.05,,
1292.89,-61.45,,
1292.905,-61.08,,
1292.92,-61.12,,
1292.935,-60.39,,
1292.95,-60.61,,
1292.965,-60.88,,
1292.98,-60.64,,
1292.995,-60.9,,
1293.01,-60.77,,
1293.025,-60.88,,
1293.04,-61.78,,
1293.055,-61.42,,
1293.07,-61.73,,
1293.085,-61.46,,
1293.1,-61.4,,
1293.115,-61.82,,
1293.13,-60.83,,
1293.145,-61.05,,
1293.16,-61.02,,
1293.175,-60.97,,
1293.19,-61.34,,
1293.205,-61.07,,
1293.22,-60.87,,
1293.235,-61.01,,
1293.25,-60.86,,
1293.266,-61.43,,
1293.281,-61.51,,
1293.295,-61.22,,
1293.31,-61.3,,
1293.325,-61.33,,
1293.34,-61.05,,
1293.355,-61.3,,
1293.37,-60.97,,
1293.385,-61.04,,
1293.401,-61.37,,
1293.416,-61.47,,
1293.43,-60.84,,
1293.445,-60.99,,
1293.46,-60.39,,
1293.475,-60.83,,
1293.49,-60.97,,
1293.505,-60.59,,
1293.521,-60.66,,
1293.536,-60.81,,
1293.551,-60.71,,
1293.566,-61.21,,
1293.58,-60.53,,
1293.595,-61.11,,
1293.61,-61.36,,
1293.625,-61.1,,
1293.641,-61.08,,
1293.656,-60.74,,
1293.671,-60.14,,
1293.686,-60.28,,
1293.701,-60.12,,
1293.715,-60.03,,
1293.73,-60.33,,
1293.745,-60.04,,
1293.76,-60.31,,
1293.776,-60.4,,
1293.791,-60.13,,
1293.806,-60.52,,
1293.821,-60.42,,
1293.836,-60.16,,
1293.851,-60.59,,
1293.865,-60.01,,
1293.88,-60.1,,
1293.896,-59.81,,
1293.911,-59.87,,
1293.926,-60.05,,
1293.941,-60.11,,
1293.956,-59.98,,
1293.971,-60.37,,
1293.986,-60.45,,
1294.001,-60.47,,
1294.016,-60.33,,
1294.031,-60.38,,
1294.046,-60.51,,
1294.061,-60.42,,
1294.076,-59.73,,
1294.091,-59.89,,
1294.106,-59.86,,
1294.121,-59.91,,
1294.136,-59.93,,
1294.151,-59.64,,
1294.166,-60.27,,
1294.181,-60.8,,
1294.196,-60.61,,
1294.211,-60.61,,
1294.226,-60.61,,
1294.241,-60.9,,
1294.256,-61.03,,
1294.271,-60.06,,
1294.286,-60.11,,
1294.301,-60.08,,
1294.316,-59.71,,
1294.331,-59.84,,
1294.346,-59.85,,
1294.361,-59.88,,
1294.376,-60.47,,
1294.391,-60.23,,
1294.406,-60.29,,
1294.421,-60.03,,
1294.436,-60.21,,
1294.451,-60.28,,
1294.466,-59.92,,
1294.481,-59.65,,
1294.496,-60.05,,
1294.511,-60.06,,
1294.526,-60.23,,
1294.541,-60.26,,
1294.556,-60.19,,
1294.571,-60.38,,
1294.586,-61.13,,
1294.601,-60.13,,
1294.616,-60.02,,
1294.631,-60.07,,
1294.646,-60.03,,
1294.661,-59.91,,
1294.676,-59.81,,
1294.691,-59.89,,
1294.706,-60.72,,
1294.721,-60.27,,
1294.736,-60.26,,
1294.751,-60.16,,
1294.766,-60.44,,
1294.781,-60.5,,
1294.796,-60.4,,
1294.811,-59.69,,
1294.826,-59.77,,
1294.841,-59.93,,
1294.856,-60.12,,
1294.871,-60.04,,
1294.886,-59.79,,
1294.901,-60.11,,
1294.916,-61.1,,
1294.931,-60.77,,
1294.946,-60.61,,
1294.961,-60.53,,
1294.976,-60.43,,
1294.991,-60.61,,
1295.006,-60.01,,
1295.021,-59.83,,
1295.036,-59.92,,
1295.051,-59.84,,
1295.066,-59.89,,
1295.081,-59.94,,
1295.096,-60.04,,
1295.111,-60.79,,
1295.126,-60.41,,
1295.141,-60.68,,
1295.156,-60.8,,
1295.171,-60.44,,
1295.186,-60.4,,
1295.201,-60.11,,
1295.216,-60.09,,
1295.231,-60.11,,
1295.246,-59.7,,
1295.261,-59.58,,
1295.276,-60.01,,
1295.291,-59.84,,
1295.306,-60.1,,
1295.321,-60.66,,
1295.336,-60.4,,
1295.351,-60.74,,
1295.366,-60.7,,
1295.381,-60.42,,
1295.396,-60.71,,
1295.411,-60.15,,
1295.426,-60.27,,
1295.441,-60.28,,
1295.456,-60.33,,
1295.471,-60.9,,
1295.486,-60.72,,
1295.501,-60.34,,
1295.516,-61.1,,
1295.531,-60.8,,
1295.546,-60.09,,
1295.561,-60.28,,
1295.576,-60.3,,
1295.591,-60.21,,
1295.606,-60.57,,
1295.621,-60.2,,
1295.636,-60.57,,
1295.651,-61.31,,
1295.666,-61.34,,
1295.681,-61.78,,
1295.696,-61.54,,
1295.711,-60.99,,
1295.726,-62.07,,
1295.741,-61.23,,
1295.756,-60.93,,
1295.771,-61.86,,
1295.786,-61.85,,
1295.801,-62.18,,
1295.816,-62.07,,
1295.831,-62.01,,
1295.846,-63.02,,
1295.861,-63.29,,
1295.876,-62.11,,
1295.891,-61.97,,
1295.906,-61.91,,
1295.921,-61.44,,
1295.936,-61.58,,
1295.951,-60.75,,
1295.966,-61.24,,
1295.981,-61.74,,
1295.996,-62.02,,
1296.011,-62.4,,
1296.026,-62.22,,
1296.041,-62.29,,
1296.056,-63.3,,
1296.071,-62.57,,
1296.086,-62.22,,
1296.101,-62.77,,
1296.116,-63.31,,
1296.131,-63.23,,
1296.146,-62.69,,
1296.161,-62.14,,
1296.176,-62.98,,
1296.191,-63.43,,
1296.206,-62.37,,
1296.221,-61.77,,
1296.236,-62.33,,
1296.251,-63.35,,
1296.266,-63.64,,
1296.281,-62.23,,
1296.296,-62.25,,
1296.311,-63.67,,
1296.326,-62.91,,
1296.341,-62.05,,
1296.356,-61.55,,
1296.371,-61.83,,
1296.386,-63.04,,
1296.401,-62.0,,
1296.416,-61.68,,
1296.431,-61.93,,
1296.446,-63.53,,
1296.461,-62.55,,
1296.476,-61.81,,
1296.491,-61.53,,
1296.506,-62.39,,
1296.521,-62.58,,
1296.536,-61.39,,
1296.551,-61.23,,
1296.566,-62.33,,
1296.581,-62.7,,
1296.596,-62.66,,
1296.611,-61.61,,
1296.626,-61.96,,
1296.641,-63.01,,
1296.656,-61.95,,
1296.671,-60.72,,
1296.686,-60.45,,
1296.701,-61.35,,
1296.716,-62.27,,
1296.731,-61.33,,
1296.746,-61.1,,
1296.761,-62.0,,
1296.776,-62.11,,
1296.791,-61.65,,
1296.806,-60.7,,
1296.821,-61.08,,
1296.836,-61.61,,
1296.851,-62.09,,
1296.866,-60.78,,
1296.881,-60.67,,
1296.896,-61.54,,
1296.911,-62.29,,
1296.926,-61.56,,
1296.941,-60.53,,
1296.956,-60.69,,
1296.971,-61.61,,
1296.986,-61.53,,
1297.001,-60.51,,
1297.016,-60.05,,
1297.031,-60.91,,
1297.046,-61.24,,
1297.061,-60.74,,
1297.076,-60.13,,
1297.091,-60.62,,
1297.106,-61.11,,
1297.121,-60.32,,
1297.136,-59.84,,
1297.151,-59.98,,
1297.166,-60.56,,
1297.181,-60.87,,
1297.196,-60.0,,
1297.211,-59.87,,
1297.226,-60.73,,
1297.241,-60.64,,
1297.256,-60.36,,
1297.271,-60.37,,
1297.286,-60.77,,
1297.301,-61.62,,
1297.316,-60.84,,
1297.331,-60.49,,
1297.346,-60.98,,
1297.361,-61.5,,
1297.376,-61.26,,
1297.391,-60.65,,
1297.406,-60.36,,
1297.421,-60.73,,
1297.436,-61.31,,
1297.451,-60.48,,
1297.466,-60.65,,
1297.481,-61.03,,
1297.496,-61.31,,
1297.511,-60.9,,
1297.526,-60.01,,
1297.541,-60.3,,
1297.556,-61.49,,
1297.571,-60.82,,
1297.586,-60.42,,
1297.601,-60.25,,
1297.616,-60.91,,
1297.631,-60.81,,
1297.646,-60.31,,
1297.661,-59.95,,
1297.676,-60.68,,
1297.691,-61.47,,
1297.706,-60.58,,
1297.721,-60.13,,
1297.736,-60.67,,
1297.751,-61.16,,
1297.766,-61.38,,
1297.781,-60.17,,
1297.796,-60.13,,
1297.811,-60.84,,
1297.826,-60.72,,
1297.841,-60.23,,
1297.856,-59.95,,
1297.871,-59.82,,
1297.886,-60.81,,
1297.901,-60.45,,
1297.916,-59.88,,
1297.931,-60.44,,
1297.946,-61.14,,
1297.961,-61.26,,
1297.976,-60.63,,
1297.991,-60.39,,
1298.006,-61.04,,
1298.021,-61.71,,
1298.036,-60.54,,
1298.051,-60.47,,
1298.066,-60.95,,
1298.081,-61.03,,
1298.096,-61.05,,
1298.111,-60.15,,
1298.126,-60.29,,
1298.141,-60.89,,
1298.156,-60.49,,
1298.171,-60.18,,
1298.186,-60.26,,
1298.201,-60.75,,
1298.216,-61.55,,
1298.231,-60.83,,
1298.246,-60.42,,
1298.261,-61.35,,
1298.276,-61.16,,
1298.291,-60.67,,
1298.306,-60.09,,
1298.321,-60.58,,
1298.336,-61.41,,
1298.351,-61.26,,
1298.366,-60.51,,
1298.381,-60.73,,
1298.396,-61.24,,
1298.411,-61.37,,
1298.426,-60.93,,
1298.441,-60.78,,
1298.456,-60.68,,
1298.471,-61.22,,
1298.486,-60.87,,
1298.501,-60.55,,
1298.516,-60.9,,
1298.531,-62.22,,
1298.546,-62.1,,
1298.561,-61.39,,
1298.576,-60.82,,
1298.591,-61.31,,
1298.606,-62.08,,
1298.621,-61.14,,
1298.636,-61.18,,
1298.651,-61.25,,
1298.666,-62.62,,
1298.681,-63.36,,
1298.696,-62.12,,
1298.711,-62.13,,
1298.726,-62.57,,
1298.741,-62.3,,
1298.756,-61.56,,
1298.771,-60.61,,
1298.786,-61.26,,
1298.801,-61.64,,
1298.816,-61.98,,
1298.831,-61.26,,
1298.846,-61.37,,
1298.861,-61.54,,
1298.876,-63.16,,
1298.891,-61.96,,
1298.906,-61.07,,
1298.921,-61.15,,
1298.936,-61.63,,
1298.951,-61.41,,
1298.966,-61.18,,
1298.981,-61.08,,
1298.996,-61.79,,
1299.011,-61.47,,
1299.026,-61.38,,
1299.041,-61.0,,
1299.056,-61.01,,
1299.071,-61.07,,
1299.086,-61.32,,
1299.101,-60.83,,
1299.116,-61.36,,
1299.131,-62.22,,
1299.146,-62.46,,
1299.161,-62.34,,
1299.176,-62.25,,
1299.191,-62.16,,
1299.206,-62.73,,
1299.221,-61.49,,
1299.236,-61.54,,
1299.251,-62.75,,
1299.266,-62.37,,
1299.281,-62.89,,
1299.296,-62.73,,
1299.311,-62.86,,
1299.326,-62.94,,
1299.341,-62.52,,
1299.356,-61.87,,
1299.371,-61.66,,
1299.386,-61.71,,
1299.401,-61.57,,
1299.416,-61.96,,
1299.431,-62.0,,
1299.446,-61.86,,
1299.461,-63.24,,
1299.476,-62.69,,
1299.491,-62.2,,
1299.506,-61.95,,
1299.521,-62.48,,
1299.536,-62.7,,
1299.551,-62.47,,
1299.566,-61.48,,
1299.581,-62.41,,
1299.596,-63.48,,
1299.611,-61.98,,
1299.626,-61.86,,
1299.641,-61.64,,
1299.656,-62.13,,
1299.671,-62.1,,
1299.686,-60.89,,
1299.701,-60.62,,
1299.716,-61.44,,
1299.731,-61.57,,
1299.746,-61.22,,
1299.761,-60.77,,
1299.776,-61.21,,
1299.791,-61.95,,
1299.806,-61.43,,
1299.821,-60.6,,
1299.836,-60.95,,
1299.851,-62.1,,
1299.866,-61.42,,
1299.881,-60.59,,
1299.896,-60.29,,
1299.911,-61.42,,
1299.926,-62.24,,
1299.941,-61.38,,
1299.956,-60.67,,
1299.971,-61.52,,
1299.986,-61.49,,
1300.001,-60.62,,
1300.016,-60.55,,
1300.031,-60.11,,
1300.046,-60.9,,
1300.061,-61.2,,
1300.076,-60.54,,
1300.091,-60.66,,
1300.106,-61.2,,
1300.121,-61.0,,
1300.136,-60.63,,
1300.151,-60.09,,
1300.166,-60.29,,
1300.181,-60.82,,
1300.196,-60.56,,
1300.211,-59.64,,
1300.226,-60.12,,
1300.241,-60.35,,
1300.256,-59.9,,
1300.271,-59.66,,
1300.286,-58.93,,
1300.301,-59.66,,
1300.316,-59.73,,
1300.331,-59.32,,
1300.346,-58.91,,
1300.361,-59.45,,
1300.376,-59.54,,
1300.391,-59.44,,
1300.406,-59.15,,
1300.421,-58.92,,
1300.436,-59.58,,
1300.451,-59.51,,
1300.466,-58.79,,
1300.481,-59.01,,
1300.496,-59.18,,
1300.511,-59.15,,
1300.526,-59.26,,
1300.541,-58.57,,
1300.556,-58.92,,
1300.571,-59.56,,
1300.586,-59.27,,
1300.601,-58.75,,
1300.616,-59.3,,
1300.631,-59.27,,
1300.646,-59.71,,
1300.661,-59.35,,
1300.676,-59.12,,
1300.691,-59.57,,
1300.706,-59.74,,
1300.721,-59.32,,
1300.736,-59.45,,
1300.751,-59.56,,
1300.766,-60.2,,
1300.781,-60.15,,
1300.796,-59.6,,
1300.811,-60.08,,
1300.826,-60.74,,
1300.841,-60.16,,
1300.856,-59.7,,
1300.871,-60.61,,
1300.886,-61.05,,
1300.901,-61.7,,
1300.916,-60.6,,
1300.931,-60.24,,
1300.946,-61.02,,
1300.961,-61.28,,
1300.976,-60.35,,
1300.991,-60.92,,
1301.006,-61.48,,
1301.021,-62.29,,
1301.036,-62.32,,
1301.051,-61.26,,
1301.066,-61.55,,
1301.081,-62.75,,
1301.096,-61.76,,
1301.111,-61.19,,
1301.126,-61.2,,
1301.141,-61.59,,
1301.156,-62.46,,
1301.171,-61.57,,
1301.186,-60.89,,
1301.201,-61.44,,
1301.216,-62.09,,
1301.231,-62.38,,
1301.246,-61.75,,
1301.261,-61.72,,
1301.276,-61.95,,
1301.292,-63.67,,
1301.307,-62.0,,
1301.321,-61.64,,
1301.336,-63.09,,
1301.351,-64.57,,
1301.366,-63.52,,
1301.381,-62.33,,
1301.396,-62.88,,
1301.411,-64.83,,
1301.427,-65.76,,
1301.442,-63.03,,
1301.457,-62.62,,
1301.471,-62.81,,
1301.486,-63.85,,
1301.501,-62.9,,
1301.516,-63.11,,
1301.531,-62.93,,
1301.547,-64.82,,
1301.562,-63.44,,
1301.577,-61.91,,
1301.592,-61.9,,
1301.606,-62.73,,
1301.621,-62.78,,
1301.636,-62.26,,
1301.651,-61.4,,
1301.667,-62.92,,
1301.682,-63.14,,
1301.697,-61.91,,
1301.712,-61.66,,
1301.727,-61.43,,
1301.742,-61.91,,
1301.756,-62.3,,
1301.771,-61.16,,
1301.786,-61.07,,
1301.802,-61.61,,
1301.817,-61.9,,
1301.832,-60.84,,
1301.847,-61.11,,
1301.862,-61.07,,
1301.877,-61.1,,
1301.891,-60.6,,
1301.906,-60.0,,
1301.922,-60.32,,
1301.937,-61.06,,
1301.952,-60.77,,
1301.967,-60.36,,
1301.982,-60.63,,
1301.997,-60.27,,
1302.012,-60.56,,
1302.027,-60.48,,
1302.042,-60.06,,
1302.057,-60.26,,
1302.072,-60.89,,
1302.087,-60.78,,
1302.102,-60.65,,
1302.117,-60.6,,
1302.132,-60.52,,
1302.147,-60.88,,
1302.162,-60.52,,
1302.177,-60.27,,
1302.192,-60.24,,
1302.207,-60.4,,
1302.222,-60.37,,
1302.237,-60.17,,
1302.252,-59.99,,
1302.267,-60.18,,
1302.282,-60.84,,
1302.297,-60.14,,
1302.312,-59.76,,
1302.327,-60.33,,
1302.342,-60.27,,
1302.357,-59.68,,
1302.372,-59.31,,
1302.387,-59.59,,
1302.402,-60.17,,
1302.417,-59.93,,
1302.432,-59.33,,
1302.447,-59.5,,
1302.462,-60.02,,
1302.477,-60.59,,
1302.492,-59.73,,
1302.507,-59.29,,
1302.522,-59.32,,
1302.537,-59.71,,
1302.552,-59.49,,
1302.567,-59.15,,
1302.582,-59.48,,
1302.597,-60.18,,
1302.612,-60.1,,
1302.627,-59.3,,
1302.642,-59.09,,
1302.657,-59.46,,
1302.672,-59.71,,
1302.687,-59.5,,
1302.702,-59.39,,
1302.717,-59.43,,
1302.732,-60.31,,
1302.747,-59.94,,
1302.762,-59.36,,
1302.777,-59.17,,
1302.792,-59.56,,
1302.807,-59.92,,
1302.822,-59.31,,
1302.837,-59.09,,
1302.852,-59.21,,
1302.867,-59.98,,
1302.882,-59.32,,
1302.897,-59.25,,
1302.912,-59.25,,
1302.927,-59.59,,
1302.942,-59.62,,
1302.957,-58.96,,
1302.972,-59.09,,
1302.987,-59.82,,
1303.002,-59.98,,
1303.017,-59.38,,
1303.032,-58.84,,
1303.047,-59.01,,
1303.062,-59.6,,
1303.077,-59.24,,
1303.092,-58.54,,
1303.107,-58.68,,
1303.122,-59.08,,
1303.137,-59.3,,
1303.152,-59.21,,
1303.167,-58.65,,
1303.182,-58.91,,
1303.197,-59.72,,
1303.212,-59.22,,
1303.227,-59.08,,
1303.242,-59.12,,
1303.257,-59.24,,
1303.272,-59.21,,
1303.287,-58.66,,
1303.302,-58.6,,
1303.317,-59.24,,
1303.332,-59.16,,
1303.347,-58.7,,
1303.362,-59.03,,
1303.377,-59.45,,
1303.392,-59.43,,
1303.407,-59.16,,
1303.422,-58.8,,
1303.437,-59.11,,
1303.452,-59.46,,
1303.467,-58.94,,
1303.482,-58.64,,
1303.497,-59.11,,
1303.512,-59.32,,
1303.527,-59.27,,
1303.542,-59.3,,
1303.557,-58.98,,
1303.572,-59.59,,
1303.587,-59.62,,
1303.602,-58.85,,
1303.617,-59.2,,
1303.632,-59.67,,
1303.647,-59.67,,
1303.662,-59.76,,
1303.677,-59.71,,
1303.692,-59.5,,
1303.707,-59.9,,
1303.722,-59.81,,
1303.737,-59.27,,
1303.752,-59.93,,
1303.767,-59.6,,
1303.782,-59.52,,
1303.797,-59.78,,
1303.812,-59.87,,
1303.827,-59.58,,
1303.842,-59.76,,
1303.857,-59.63,,
1303.872,-59.48,,
1303.887,-59.95,,
1303.902,-59.66,,
1303.917,-59.6,,
1303.932,-59.84,,
1303.947,-59.38,,
1303.962,-59.4,,
1303.977,-59.78,,
1303.992,-59.61,,
1304.007,-59.59,,
1304.022,-59.89,,
1304.037,-59.87,,
1304.052,-60.37,,
1304.067,-60.46,,
1304.082,-60.11,,
1304.097,-60.24,,
1304.112,-60.77,,
1304.127,-60.81,,
1304.142,-60.4,,
1304.157,-60.31,,
1304.172,-60.42,,
1304.187,-60.38,,
1304.202,-60.54,,
1304.217,-60.58,,
1304.232,-60.54,,
1304.247,-60.28,,
1304.262,-60.9,,
1304.277,-60.65,,
1304.292,-60.83,,
1304.307,-60.82,,
1304.322,-60.76,,
1304.337,-60.89,,
1304.352,-60.81,,
1304.367,-60.47,,
1304.382,-60.32,,
1304.397,-60.57,,
1304.412,-60.21,,
1304.427,-60.88,,
1304.442,-61.62,,
1304.457,-61.5,,
1304.472,-62.04,,
1304.487,-62.13,,
1304.502,-61.61,,
1304.517,-62.02,,
1304.532,-62.47,,
1304.547,-61.83,,
1304.562,-62.49,,
1304.577,-62.49,,
1304.592,-61.72,,
1304.607,-62.53,,
1304.622,-61.65,,
1304.637,-61.43,,
1304.652,-62.12,,
1304.667,-62.13,,
1304.682,-61.3,,
1304.697,-61.92,,
1304.712,-61.41,,
1304.727,-61.2,,
1304.742,-61.7,,
1304.757,-60.86,,
1304.772,-61.52,,
1304.787,-62.08,,
1304.802,-61.75,,
1304.817,-61.14,,
1304.832,-61.61,,
1304.847,-61.44,,
1304.862,-62.24,,
1304.877,-62.64,,
1304.892,-61.8,,
1304.907,-61.82,,
1304.922,-62.21,,
1304.937,-61.86,,
1304.952,-62.24,,
1304.967,-62.59,,
1304.982,-62.11,,
1304.997,-61.66,,
1305.012,-61.92,,
1305.027,-61.1,,
1305.042,-61.4,,
1305.057,-61.67,,
1305.072,-61.15,,
1305.087,-61.52,,
1305.102,-61.32,,
1305.117,-61.09,,
1305.132,-60.93,,
1305.147,-61.52,,
1305.162,-61.02,,
1305.177,-61.42,,
1305.192,-62.43,,
1305.207,-61.77,,
1305.222,-61.66,,
1305.237,-61.72,,
1305.252,-61.7,,
1305.267,-61.64,,
1305.282,-61.63,,
1305.297,-61.12,,
1305.312,-62.01,,
1305.327,-62.56,,
1305.342,-61.6,,
1305.357,-61.26,,
1305.372,-61.32,,
1305.387,-61.13,,
1305.402,-61.24,,
1305.417,-61.38,,
1305.432,-60.85,,
1305.447,-60.58,,
1305.462,-60.49,,
1305.477,-59.85,,
1305.492,-59.91,,
1305.507,-60.55,,
1305.522,-60.28,,
1305.537,-60.51,,
1305.552,-60.57,,
1305.567,-60.24,,
1305.582,-59.94,,
1305.597,-60.49,,
1305.612,-60.01,,
1305.627,-60.3,,
1305.642,-60.02,,
1305.657,-60.03,,
1305.672,-60.2,,
1305.687,-60.25,,
1305.702,-59.96,,
1305.717,-60.18,,
1305.732,-60.24,,
1305.747,-60.06,,
1305.762,-60.47,,
1305.777,-59.99,,
1305.792,-60.33,,
1305.807,-60.45,,
1305.822,-60.26,,
1305.837,-60.28,,
1305.852,-60.75,,
1305.867,-60.49,,
1305.882,-60.09,,
1305.897,-60.54,,
1305.912,-60.88,,
1305.927,-60.95,,
1305.942,-60.77,,
1305.957,-60.45,,
1305.972,-60.78,,
1305.987,-60.97,,
1306.002,-60.74,,
1306.017,-60.56,,
1306.032,-61.01,,
1306.047,-61.95,,
1306.062,-61.16,,
1306.077,-60.91,,
1306.092,-60.91,,
1306.107,-61.41,,
1306.122,-61.33,,
1306.137,-61.1,,
1306.152,-61.19,,
1306.167,-62.08,,
1306.182,-62.21,,
1306.197,-61.51,,
1306.212,-61.25,,
1306.227,-61.38,,
1306.242,-61.22,,
1306.257,-61.36,,
1306.272,-61.4,,
1306.287,-61.54,,
1306.302,-62.71,,
1306.317,-61.76,,
1306.332,-61.06,,
1306.347,-61.6,,
1306.362,-62.26,,
1306.377,-62.56,,
1306.392,-62.56,,
1306.407,-63.02,,
1306.422,-62.8,,
1306.437,-64.44,,
1306.452,-63.09,,
1306.467,-62.73,,
1306.482,-64.1,,
1306.497,-64.54,,
1306.512,-63.18,,
1306.527,-63.95,,
1306.542,-63.47,,
1306.557,-63.0,,
1306.572,-63.33,,
1306.587,-62.83,,
1306.602,-63.05,,
1306.617,-63.82,,
1306.632,-63.41,,
1306.647,-63.69,,
1306.662,-63.87,,
1306.677,-63.74,,
1306.692,-63.79,,
1306.707,-64.12,,
1306.722,-62.89,,
1306.737,-64.31,,
1306.752,-65.13,,
1306.767,-64.21,,
1306.782,-64.72,,
1306.797,-64.03,,
1306.812,-63.64,,
1306.827,-63.74,,
1306.842,-64.16,,
1306.857,-62.86,,
1306.872,-63.72,,
1306.887,-63.08,,
1306.902,-62.37,,
1306.917,-62.53,,
1306.932,-62.09,,
1306.947,-62.12,,
1306.962,-62.53,,
1306.977,-62.74,,
1306.992,-62.06,,
1307.007,-62.34,,
1307.022,-61.5,,
1307.037,-61.98,,
1307.052,-61.51,,
1307.067,-61.33,,
1307.082,-61.63,,
1307.097,-61.58,,
1307.112,-60.96,,
1307.127,-61.07,,
1307.142,-61.28,,
1307.157,-61.27,,
1307.172,-61.19,,
1307.187,-60.6,,
1307.202,-60.59,,
1307.217,-61.22,,
1307.232,-60.93,,
1307.247,-60.83,,
1307.262,-61.28,,
1307.277,-61.49,,
1307.292,-60.83,,
1307.307,-60.14,,
1307.322,-60.41,,
1307.337,-60.53,,
1307.352,-60.54,,
1307.367,-60.16,,
1307.382,-60.18,,
1307.397,-60.75,,
1307.412,-60.4,,
1307.427,-59.9,,
1307.442,-59.62,,
1307.457,-60.39,,
1307.472,-60.77,,
1307.487,-60.03,,
1307.502,-59.82,,
1307.517,-60.05,,
1307.532,-60.26,,
1307.547,-59.65,,
1307.562,-59.57,,
1307.577,-60.19,,
1307.592,-60.72,,
1307.607,-59.92,,
1307.622,-59.63,,
1307.637,-60.35,,
1307.652,-61.22,,
1307.667,-60.98,,
1307.682,-60.26,,
1307.697,-60.68,,
1307.712,-61.24,,
1307.727,-61.12,,
1307.742,-60.52,,
1307.757,-60.42,,
1307.772,-60.98,,
1307.787,-60.57,,
1307.802,-59.93,,
1307.817,-60.6,,
1307.832,-60.82,,
1307.847,-60.76,,
1307.862,-60.62,,
1307.877,-60.25,,
1307.892,-61.03,,
1307.907,-61.4,,
1307.922,-60.36,,
1307.937,-60.31,,
1307.952,-61.28,,
1307.967,-61.06,,
1307.982,-60.11,,
1307.997,-60.2,,
1308.012,-60.52,,
1308.027,-61.5,,
1308.042,-60.91,,
1308.057,-60.23,,
1308.072,-60.84,,
1308.087,-61.24,,
1308.102,-60.43,,
1308.117,-60.56,,
1308.132,-61.58,,
1308.147,-61.8,,
1308.162,-60.88,,
1308.177,-60.31,,
1308.192,-60.12,,
1308.207,-61.07,,
1308.222,-60.75,,
1308.237,-60.0,,
1308.252,-59.97,,
1308.267,-60.89,,
1308.282,-60.26,,
1308.297,-59.91,,
1308.312,-60.23,,
1308.327,-61.03,,
1308.342,-60.92,,
1308.357,-60.65,,
1308.372,-60.17,,
1308.387,-60.41,,
1308.402,-60.68,,
1308.417,-60.06,,
1308.432,-60.2,,
1308.447,-60.47,,
1308.462,-60.45,,
1308.477,-59.65,,
1308.492,-59.58,,
1308.507,-60.22,,
1308.522,-60.53,,
1308.537,-60.11,,
1308.552,-59.78,,
1308.567,-60.02,,
1308.582,-60.26,,
1308.597,-59.93,,
1308.612,-59.94,,
1308.627,-60.37,,
1308.642,-60.47,,
1308.657,-59.58,,
1308.672,-59.14,,
1308.687,-59.31,,
1308.702,-59.47,,
1308.717,-59.27,,
1308.732,-59.04,,
1308.747,-59.0,,
1308.762,-59.61,,
1308.777,-59.2,,
1308.792,-59.01,,
1308.807,-59.31,,
1308.822,-59.46,,
1308.837,-59.99,,
1308.852,-59.42,,
1308.867,-59.27,,
1308.882,-59.73,,
1308.897,-59.93,,
1308.912,-59.7,,
1308.927,-59.84,,
1308.942,-60.53,,
1308.957,-60.08,,
1308.972,-59.98,,
1308.987,-60.11,,
1309.002,-60.02,,
1309.017,-60.36,,
1309.032,-60.3,,
1309.047,-59.93,,
1309.062,-60.23,,
1309.077,-60.65,,
1309.092,-60.3,,
1309.107,-60.32,,
1309.122,-60.4,,
1309.137,-59.8,,
1309.152,-59.86,,
1309.167,-60.48,,
1309.182,-59.96,,
1309.198,-60.05,,
1309.212,-60.1,,
1309.227,-60.17,,
1309.242,-60.2,,
1309.257,-60.64,,
1309.272,-60.53,,
1309.287,-60.8,,
1309.302,-61.24,,
1309.318,-60.8,,
1309.333,-60.48,,
1309.347,-61.13,,
1309.362,-60.5,,
1309.377,-60.66,,
1309.392,-61.17,,
1309.407,-60.9,,
1309.422,-60.57,,
1309.438,-60.88,,
1309.453,-60.64,,
1309.468,-60.75,,
1309.483,-61.1,,
1309.497,-61.0,,
1309.512,-60.49,,
1309.527,-61.02,,
1309.542,-60.54,,
1309.557,-60.55,,
1309.573,-61.42,,
1309.588,-61.51,,
1309.603,-61.94,,
1309.618,-61.6,,
1309.632,-61.32,,
1309.647,-60.9,,
1309.662,-61.49,,
1309.677,-61.19,,
1309.693,-61.49,,
1309.708,-61.85,,
1309.723,-61.48,,
1309.738,-61.32,,
1309.753,-62.03,,
1309.768,-62.2,,
1309.782,-62.3,,
1309.797,-63.07,,
1309.813,-62.98,,
1309.828,-62.72,,
1309.843,-62.87,,
1309.858,-62.12,,
1309.873,-62.82,,
1309.888,-62.95,,
1309.903,-62.74,,
1309.917,-61.93,,
1309.932,-62.14,,
1309.948,-62.12,,
1309.963,-61.86,,
1309.978,-62.67,,
1309.993,-62.42,,
1310.008,-62.62,,
1310.023,-63.58,,
1310.038,-62.37,,
1310.053,-62.44,,
1310.068,-62.88,,
1310.083,-62.78,,
1310.098,-61.97,,
1310.113,-62.18,,
1310.128,-62.14,,
1310.143,-63.29,,
1310.158,-63.61,,
1310.173,-62.13,,
1310.188,-62.44,,
1310.203,-63.86,,
1310.218,-64.36,,
1310.233,-62.75,,
1310.248,-62.38,,
1310.263,-63.84,,
1310.278,-63.87,,
1310.293,-62.05,,
1310.308,-61.54,,
1310.323,-61.92,,
1310.338,-62.49,,
1310.353,-62.01,,
1310.368,-61.51,,
1310.383,-61.89,,
1310.398,-62.56,,
1310.413,-61.77,,
1310.428,-61.59,,
1310.443,-61.91,,
1310.458,-63.33,,
1310.473,-62.4,,
1310.488,-61.94,,
1310.503,-62.22,,
1310.518,-63.39,,
1310.533,-62.68,,
1310.548,-62.0,,
1310.563,-62.41,,
1310.578,-63.27,,
1310.593,-62.52,,
1310.608,-60.99,,
1310.623,-61.47,,
1310.638,-62.84,,
1310.653,-62.19,,
1310.668,-61.9,,
1310.683,-61.89,,
1310.698,-62.3,,
1310.713,-63.44,,
1310.728,-62.48,,
1310.743,-62.49,,
1310.758,-62.84,,
1310.773,-62.89,,
1310.788,-61.9,,
1310.803,-61.45,,
1310.818,-62.58,,
1310.833,-63.16,,
1310.848,-62.46,,
1310.863,-62.39,,
1310.878,-62.06,,
1310.893,-62.97,,
1310.908,-62.12,,
1310.923,-61.53,,
1310.938,-62.09,,
1310.953,-62.84,,
1310.968,-62.48,,
1310.983,-61.5,,
1310.998,-62.09,,
1311.013,-63.78,,
1311.028,-63.4,,
1311.043,-62.5,,
1311.058,-63.03,,
1311.073,-63.96,,
1311.088,-63.9,,
1311.103,-63.89,,
1311.118,-63.7,,
1311.133,-65.43,,
1311.148,-65.52,,
1311.163,-63.0,,
1311.178,-63.16,,
1311.193,-63.04,,
1311.208,-64.11,,
1311.223,-62.87,,
1311.238,-62.52,,
1311.253,-63.71,,
1311.268,-63.59,,
1311.283,-62.43,,
1311.298,-62.58,,
1311.313,-63.5,,
1311.328,-64.45,,
1311.343,-63.34,,
1311.358,-62.57,,
1311.373,-63.24,,
1311.388,-65.53,,
1311.403,-64.07,,
1311.418,-63.59,,
1311.433,-64.56,,
1311.448,-65.83,,
1311.463,-64.13,,
1311.478,-63.48,,
1311.493,-64.04,,
1311.508,-65.75,,
1311.523,-64.27,,
1311.538,-62.92,,
1311.553,-62.72,,
1311.568,-63.39,,
1311.583,-63.65,,
1311.598,-62.68,,
1311.613,-63.05,,
1311.628,-63.95,,
1311.643,-63.32,,
1311.658,-63.05,,
1311.673,-62.46,,
1311.688,-64.44,,
1311.703,-64.79,,
1311.718,-62.45,,
1311.733,-62.01,,
1311.748,-62.64,,
1311.763,-64.22,,
1311.778,-62.52,,
1311.793,-62.19,,
1311.808,-63.09,,
1311.823,-62.95,,
1311.838,-61.94,,
1311.853,-61.17,,
1311.868,-61.77,,
1311.883,-62.32,,
1311.898,-61.25,,
1311.913,-60.57,,
1311.928,-61.08,,
1311.943,-62.23,,
1311.958,-61.17,,
1311.973,-60.6,,
1311.988,-60.85,,
1312.003,-61.48,,
1312.018,-61.09,,
1312.033,-60.22,,
1312.048,-60.74,,
1312.063,-61.5,,
1312.078,-60.89,,
1312.093,-60.23,,
1312.108,-60.14,,
1312.123,-60.49,,
1312.138,-60.63,,
1312.153,-60.11,,
1312.168,-60.11,,
1312.183,-60.59,,
1312.198,-61.49,,
1312.213,-60.81,,
1312.228,-60.69,,
1312.243,-61.43,,
1312.258,-61.32,,
1312.273,-61.42,,
1312.288,-61.07,,
1312.303,-61.37,,
1312.318,-61.72,,
1312.333,-61.47,,
1312.348,-61.28,,
1312.363,-61.58,,
1312.378,-62.57,,
1312.393,-61.47,,
1312.408,-60.74,,
1312.423,-61.43,,
1312.438,-61.83,,
1312.453,-61.63,,
1312.468,-60.87,,
1312.483,-61.35,,
1312.498,-62.04,,
1312.513,-61.19,,
1312.528,-60.85,,
1312.543,-61.24,,
1312.558,-62.25,,
1312.573,-62.16,,
1312.588,-61.3,,
1312.603,-61.82,,
1312.618,-62.81,,
1312.633,-61.98,,
1312.648,-61.23,,
1312.663,-61.34,,
1312.678,-62.83,,
1312.693,-62.45,,
1312.708,-61.41,,
1312.723,-61.8,,
1312.738,-63.19,,
1312.753,-62.95,,
1312.768,-61.62,,
1312.783,-61.81,,
1312.798,-62.87,,
1312.813,-62.34,,
1312.828,-61.44,,
1312.843,-62.38,,
1312.858,-62.88,,
1312.873,-63.29,,
1312.888,-62.82,,
1312.903,-62.51,,
1312.918,-63.67,,
1312.933,-65.97,,
1312.948,-63.67,,
1312.963,-63.3,,
1312.978,-65.9,,
1312.993,-67.65,,
1313.008,-64.43,,
1313.023,-63.73,,
1313.038,-66.13,,
1313.053,-65.46,,
1313.068,-63.84,,
1313.083,-63.37,,
1313.098,-63.86,,
1313.113,-65.26,,
1313.128,-65.05,,
1313.143,-63.43,,
1313.158,-64.22,,
1313.173,-66.06,,
1313.188,-64.38,,
1313.203,-62.94,,
1313.218,-63.88,,
1313.233,-64.45,,
1313.248,-62.65,,
1313.263,-63.01,,
1313.278,-63.37,,
1313.293,-65.23,,
1313.308,-65.49,,
1313.323,-63.29,,
1313.338,-63.23,,
1313.353,-64.51,,
1313.368,-63.88,,
1313.383,-62.58,,
1313.398,-63.24,,
1313.413,-64.21,,
1313.428,-63.13,,
1313.443,-63.23,,
1313.458,-63.25,,
1313.473,-63.77,,
1313.488,-63.72,,
1313.503,-62.27,,
1313.518,-62.75,,
1313.533,-64.22,,
1313.548,-63.97,,
1313.563,-62.51,,
1313.578,-64.03,,
1313.593,-65.03,,
1313.608,-63.64,,
1313.623,-62.95,,
1313.638,-64.39,,
1313.653,-63.99,,
1313.668,-64.06,,
1313.683,-62.61,,
1313.698,-62.01,,
1313.713,-63.5,,
1313.728,-62.86,,
1313.743,-61.66,,
1313.758,-62.5,,
1313.773,-63.29,,
1313.788,-62.61,,
1313.803,-62.19,,
1313.818,-62.95,,
1313.833,-63.0,,
1313.848,-62.1,,
1313.863,-61.81,,
1313.878,-61.24,,
1313.893,-61.71,,
1313.908,-61.75,,
1313.923,-61.56,,
1313.938,-61.49,,
1313.953,-62.0,,
1313.968,-61.59,,
1313.983,-60.75,,
1313.998,-60.74,,
1314.013,-61.44,,
1314.028,-61.2,,
1314.043,-60.52,,
1314.058,-60.33,,
1314.073,-60.47,,
1314.088,-61.29,,
1314.103,-61.04,,
1314.118,-60.74,,
1314.133,-61.42,,
1314.148,-61.65,,
1314.163,-60.92,,
1314.178,-60.75,,
1314.193,-61.7,,
1314.208,-61.9,,
1314.223,-61.3,,
1314.238,-60.57,,
1314.253,-61.48,,
1314.268,-62.26,,
1314.283,-61.4,,
1314.298,-60.15,,
1314.313,-60.12,,
1314.328,-60.74,,
1314.343,-60.43,,
1314.358,-60.05,,
1314.373,-60.7,,
1314.388,-61.36,,
1314.403,-61.05,,
1314.418,-60.38,,
1314.433,-60.68,,
1314.448,-61.55,,
1314.463,-60.84,,
1314.478,-60.33,,
1314.493,-60.55,,
1314.508,-61.65,,
1314.523,-61.39,,
1314.538,-60.71,,
1314.553,-60.89,,
1314.568,-62.19,,
1314.583,-62.15,,
1314.598,-61.17,,
1314.613,-61.17,,
1314.628,-61.95,,
1314.643,-61.34,,
1314.658,-60.91,,
1314.673,-61.22,,
1314.688,-62.35,,
1314.703,-62.2,,
1314.718,-60.95,,
1314.733,-61.39,,
1314.748,-62.71,,
1314.763,-61.64,,
1314.778,-61.15,,
1314.793,-61.1,,
1314.808,-61.49,,
1314.823,-61.36,,
1314.838,-61.27,,
1314.853,-61.41,,
1314.868,-62.68,,
1314.883,-63.04,,
1314.898,-61.49,,
1314.913,-62.09,,
1314.928,-63.56,,
1314.943,-62.3,,
1314.958,-61.22,,
1314.973,-61.94,,
1314.988,-63.27,,
1315.003,-62.36,,
1315.018,-61.58,,
1315.033,-61.49,,
1315.048,-62.2,,
1315.063,-63.2,,
1315.078,-62.29,,
1315.093,-61.88,,
1315.108,-63.05,,
1315.123,-63.03,,
1315.138,-61.69,,
1315.153,-61.78,,
1315.168,-62.86,,
1315.183,-62.33,,
1315.198,-61.29,,
1315.213,-62.11,,
1315.228,-62.35,,
1315.243,-63.67,,
1315.258,-62.69,,
1315.273,-61.88,,
1315.288,-62.69,,
1315.303,-63.12,,
1315.318,-62.7,,
1315.333,-62.63,,
1315.348,-63.9,,
1315.363,-63.44,,
1315.378,-62.76,,
1315.393,-63.11,,
1315.408,-62.68,,
1315.423,-62.92,,
1315.438,-63.64,,
1315.453,-62.3,,
1315.468,-62.75,,
1315.483,-63.71,,
1315.498,-63.06,,
1315.513,-62.09,,
1315.528,-62.41,,
1315.543,-62.98,,
1315.558,-62.07,,
1315.573,-61.33,,
1315.588,-61.0,,
1315.603,-61.23,,
1315.618,-61.53,,
1315.633,-61.25,,
1315.648,-61.45,,
1315.663,-62.5,,
1315.678,-62.65,,
1315.693,-61.52,,
1315.708,-61.82,,
1315.723,-62.72,,
1315.738,-62.56,,
1315.753,-61.57,,
1315.768,-62.62,,
1315.783,-62.85,,
1315.798,-62.99,,
1315.813,-62.98,,
1315.828,-62.5,,
1315.843,-62.74,,
1315.858,-62.46,,
1315.873,-61.4,,
1315.888,-60.73,,
1315.903,-61.64,,
1315.918,-61.75,,
1315.933,-60.7,,
1315.948,-60.68,,
1315.963,-61.98,,
1315.978,-61.57,,
1315.993,-60.64,,
1316.008,-61.06,,
1316.023,-61.52,,
1316.038,-61.81,,
1316.053,-61.63,,
1316.068,-61.88,,
1316.083,-61.94,,
1316.098,-62.14,,
1316.113,-61.01,,
1316.128,-61.04,,
1316.143,-61.99,,
1316.158,-61.62,,
1316.173,-60.76,,
1316.188,-61.53,,
1316.203,-62.17,,
1316.218,-61.09,,
1316.233,-60.68,,
1316.248,-60.82,,
1316.263,-61.23,,
1316.278,-61.07,,
1316.293,-60.36,,
1316.308,-60.32,,
1316.323,-61.17,,
1316.338,-61.08,,
1316.353,-60.07,,
1316.368,-60.69,,
1316.383,-61.54,,
1316.398,-60.7,,
1316.413,-60.32,,
1316.428,-60.92,,
1316.443,-60.95,,
1316.458,-60.69,,
1316.473,-60.35,,
1316.488,-60.56,,
1316.503,-60.54,,
1316.518,-60.49,,
1316.533,-60.11,,
1316.548,-59.87,,
1316.563,-60.59,,
1316.578,-60.63,,
1316.593,-60.3,,
1316.608,-60.59,,
1316.623,-60.93,,
1316.638,-60.68,,
1316.653,-60.32,,
1316.668,-60.46,,
1316.683,-60.03,,
1316.698,-60.17,,
1316.713,-60.14,,
1316.728,-60.26,,
1316.743,-60.04,,
1316.758,-60.25,,
1316.773,-60.25,,
1316.788,-60.09,,
1316.803,-60.51,,
1316.818,-60.49,,
1316.833,-60.18,,
1316.848,-60.34,,
1316.863,-60.83,,
1316.878,-60.86,,
1316.893,-61.06,,
1316.908,-61.33,,
1316.923,-61.27,,
1316.938,-61.07,,
1316.953,-61.71,,
1316.968,-61.59,,
1316.983,-61.21,,
1316.998,-61.23,,
1317.013,-61.63,,
1317.028,-61.6,,
1317.043,-61.3,,
1317.058,-61.05,,
1317.073,-61.04,,
1317.088,-61.55,,
1317.103,-61.49,,
1317.118,-61.45,,
1317.133,-61.83,,
1317.148,-61.85,,
1317.163,-61.75,,
1317.178,-61.54,,
1317.193,-61.59,,
1317.208,-61.88,,
1317.224,-61.85,,
1317.238,-62.17,,
1317.253,-62.23,,
1317.268,-62.3,,
1317.283,-62.22,,
1317.298,-62.2,,
1317.313,-63.49,,
1317.328,-62.56,,
1317.344,-62.03,,
1317.359,-62.21,,
1317.373,-62.3,,
1317.388,-62.25,,
1317.403,-61.78,,
1317.418,-61.68,,
1317.433,-61.59,,
1317.448,-61.71,,
1317.464,-62.07,,
1317.479,-61.66,,
1317.494,-61.39,,
1317.509,-62.39,,
1317.523,-62.33,,
1317.538,-62.64,,
1317.553,-63.48,,
1317.568,-63.23,,
1317.583,-62.91,,
1317.599,-63.22,,
1317.614,-62.78,,
1317.629,-63.38,,
1317.644,-64.1,,
1317.658,-63.56,,
1317.673,-62.35,,
1317.688,-63.82,,
1317.703,-64.26,,
1317.719,-63.53,,
1317.734,-62.94,,
1317.749,-63.9,,
1317.764,-63.7,,
1317.779,-62.69,,
1317.794,-63.32,,
1317.808,-62.9,,
1317.823,-63.22,,
1317.839,-63.34,,
1317.854,-62.57,,
1317.869,-62.89,,
1317.884,-63.21,,
1317.899,-63.11,,
1317.914,-62.83,,
1317.929,-63.11,,
1317.944,-63.38,,
1317.958,-63.27,,
1317.974,-63.01,,
1317.989,-63.27,,
1318.004,-63.25,,
1318.019,-63.17,,
1318.034,-62.11,,
1318.049,-63.36,,
1318.064,-64.49,,
1318.079,-62.95,,
1318.094,-62.19,,
1318.109,-62.79,,
1318.124,-63.2,,
1318.139,-62.78,,
1318.154,-62.21,,
1318.169,-62.58,,
1318.184,-63.35,,
1318.199,-62.84,,
1318.214,-62.49,,
1318.229,-63.08,,
1318.244,-63.22,,
1318.259,-62.38,,
1318.274,-61.5,,
1318.289,-62.28,,
1318.304,-63.14,,
1318.319,-61.49,,
1318.334,-61.51,,
1318.349,-62.24,,
1318.364,-62.74,,
1318.379,-62.77,,
1318.394,-61.82,,
1318.409,-62.89,,
1318.424,-63.6,,
1318.439,-62.93,,
1318.454,-62.59,,
1318.469,-62.19,,
1318.484,-64.41,,
1318.499,-63.15,,
1318.514,-62.19,,
1318.529,-62.56,,
1318.544,-64.02,,
1318.559,-62.95,,
1318.574,-61.93,,
1318.589,-63.01,,
1318.604,-63.99,,
1318.619,-63.48,,
1318.634,-62.16,,
1318.649,-62.2,,
1318.664,-62.46,,
1318.679,-62.47,,
1318.694,-62.0,,
1318.709,-62.41,,
1318.724,-62.23,,
1318.739,-62.17,,
1318.754,-61.38,,
1318.769,-62.07,,
1318.784,-63.16,,
1318.799,-62.07,,
1318.814,-61.92,,
1318.829,-62.31,,
1318.844,-62.61,,
1318.859,-62.66,,
1318.874,-62.12,,
1318.889,-62.64,,
1318.904,-62.71,,
1318.919,-62.34,,
1318.934,-62.35,,
1318.949,-62.61,,
1318.964,-62.21,,
1318.979,-61.76,,
1318.994,-62.27,,
1319.009,-63.36,,
1319.024,-63.09,,
1319.039,-63.12,,
1319.054,-62.37,,
1319.069,-62.95,,
1319.084,-62.57,,
1319.099,-62.71,,
1319.114,-62.54,,
1319.129,-62.99,,
1319.144,-62.78,,
1319.159,-62.54,,
1319.174,-62.83,,
1319.189,-62.69,,
1319.204,-62.3,,
1319.219,-62.41,,
1319.234,-62.1,,
1319.249,-62.2,,
1319.264,-61.99,,
1319.279,-61.94,,
1319.294,-61.69,,
1319.309,-61.93,,
1319.324,-62.05,,
1319.339,-61.87,,
1319.354,-61.7,,
1319.369,-62.21,,
1319.384,-61.8,,
1319.399,-61.74,,
1319.414,-61.87,,
1319.429,-61.52,,
1319.444,-61.49,,
1319.459,-61.38,,
1319.474,-62.72,,
1319.489,-61.47,,
1319.504,-61.56,,
1319.519,-62.27,,
1319.534,-62.79,,
1319.549,-61.27,,
1319.564,-61.31,,
1319.579,-61.37,,
1319.594,-61.52,,
1319.609,-61.05,,
1319.624,-60.81,,
1319.639,-61.44,,
1319.654,-61.88,,
1319.669,-61.37,,
1319.684,-61.3,,
1319.699,-61.39,,
1319.714,-61.45,,
1319.729,-61.58,,
1319.744,-61.15,,
1319.759,-61.96,,
1319.774,-62.27,,
1319.789,-61.24,,
1319.804,-61.34,,
1319.819,-62.36,,
1319.834,-61.91,,
1319.849,-61.95,,
1319.864,-61.65,,
1319.879,-61.91,,
1319.894,-61.9,,
1319.909,-61.75,,
1319.924,-61.75,,
1319.939,-61.59,,
1319.954,-61.61,,
1319.969,-61.56,,
1319.984,-61.68,,
1319.999,-61.56,,
1320.014,-61.2,,
1320.029,-60.69,,
1320.044,-61.26,,
1320.059,-62.43,,
1320.074,-61.49,,
1320.089,-61.41,,
1320.104,-61.46,,
1320.119,-60.76,,
1320.134,-60.68,,
1320.149,-60.92,,
1320.164,-60.99,,
1320.179,-60.48,,
1320.194,-60.88,,
1320.209,-61.15,,
1320.224,-60.35,,
1320.239,-60.32,,
1320.254,-60.68,,
1320.269,-60.87,,
1320.284,-60.8,,
1320.299,-61.32,,
1320.314,-60.77,,
1320.329,-60.73,,
1320.344,-61.12,,
1320.359,-61.41,,
1320.374,-60.89,,
1320.389,-61.28,,
1320.404,-61.21,,
1320.419,-60.69,,
1320.434,-61.07,,
1320.449,-60.91,,
1320.464,-60.99,,
1320.479,-60.67,,
1320.494,-60.78,,
1320.509,-60.64,,
1320.524,-60.35,,
1320.539,-60.47,,
1320.554,-60.66,,
1320.569,-60.43,,
1320.584,-60.98,,
1320.599,-61.14,,
1320.614,-60.55,,
1320.629,-60.72,,
1320.644,-61.36,,
1320.659,-60.53,,
1320.674,-60.27,,
1320.689,-60.64,,
1320.704,-61.52,,
1320.719,-61.03,,
1320.734,-61.2,,
1320.749,-61.41,,
1320.764,-61.6,,
1320.779,-61.26,,
1320.794,-61.29,,
1320.809,-61.33,,
1320.824,-61.28,,
1320.839,-61.19,,
1320.854,-60.34,,
1320.869,-60.63,,
1320.884,-61.21,,
1320.899,-60.56,,
1320.914,-60.31,,
1320.929,-60.83,,
1320.944,-61.35,,
1320.959,-60.71,,
1320.974,-60.65,,
1320.989,-60.95,,
1321.004,-61.45,,
1321.019,-60.75,,
1321.034,-60.98,,
1321.049,-61.58,,
1321.064,-60.96,,
1321.079,-60.17,,
1321.094,-60.01,,
1321.109,-60.25,,
1321.124,-61.41,,
1321.139,-60.87,,
1321.154,-60.52,,
1321.169,-60.96,,
1321.184,-61.47,,
1321.199,-60.49,,
1321.214,-60.38,,
1321.229,-61.43,,
1321.244,-61.78,,
1321.259,-60.85,,
1321.274,-60.88,,
1321.289,-61.93,,
1321.304,-62.12,,
1321.319,-61.25,,
1321.334,-61.62,,
1321.349,-62.53,,
1321.364,-62.21,,
1321.379,-61.49,,
1321.394,-61.28,,
1321.409,-62.33,,
1321.424,-62.1,,
1321.439,-60.88,,
1321.454,-61.5,,
1321.469,-61.75,,
1321.484,-62.21,,
1321.499,-61.5,,
1321.514,-61.84,,
1321.529,-62.87,,
1321.544,-62.4,,
1321.559,-61.79,,
1321.574,-62.01,,
1321.589,-63.16,,
1321.604,-61.98,,
1321.619,-61.84,,
1321.634,-62.51,,
1321.649,-62.86,,
1321.664,-62.29,,
1321.679,-62.27,,
1321.694,-63.06,,
1321.709,-62.98,,
1321.724,-61.9,,
1321.739,-61.02,,
1321.754,-60.95,,
1321.769,-61.2,,
1321.784,-61.47,,
1321.799,-61.07,,
1321.814,-61.03,,
1321.829,-61.01,,
1321.844,-61.2,,
1321.859,-61.13,,
1321.874,-61.18,,
1321.889,-61.18,,
1321.904,-61.42,,
1321.919,-61.39,,
1321.934,-61.12,,
1321.949,-60.72,,
1321.964,-61.21,,
1321.979,-61.2,,
1321.994,-61.37,,
1322.009,-60.93,,
1322.024,-61.14,,
1322.039,-61.84,,
1322.054,-60.87,,
1322.069,-60.28,,
1322.084,-61.42,,
1322.099,-61.59,,
1322.114,-61.78,,
1322.129,-61.3,,
1322.144,-61.75,,
1322.159,-62.01,,
1322.174,-61.67,,
1322.189,-61.63,,
1322.204,-62.61,,
1322.219,-62.69,,
1322.234,-61.91,,
1322.249,-61.53,,
1322.264,-63.2,,
1322.279,-62.63,,
1322.294,-61.64,,
1322.309,-60.55,,
1322.324,-61.11,,
1322.339,-61.67,,
1322.354,-61.07,,
1322.369,-60.47,,
1322.384,-61.37,,
1322.399,-61.66,,
1322.414,-60.7,,
1322.429,-60.56,,
1322.444,-61.5,,
1322.459,-61.68,,
1322.474,-61.22,,
1322.489,-60.49,,
1322.504,-61.22,,
1322.519,-62.11,,
1322.534,-61.08,,
1322.549,-60.45,,
1322.564,-61.38,,
1322.579,-62.0,,
1322.594,-60.73,,
1322.609,-60.53,,
1322.624,-60.72,,
1322.639,-61.27,,
1322.654,-60.71,,
1322.669,-60.25,,
1322.684,-60.68,,
1322.699,-61.49,,
1322.714,-60.66,,
1322.729,-60.41,,
1322.744,-60.75,,
1322.759,-62.0,,
1322.774,-61.71,,
1322.789,-60.71,,
1322.804,-61.22,,
1322.819,-62.75,,
1322.834,-62.13,,
1322.849,-61.01,,
1322.864,-61.85,,
1322.879,-62.74,,
1322.894,-61.72,,
1322.909,-61.18,,
1322.924,-62.0,,
1322.939,-62.53,,
1322.954,-61.98,,
1322.969,-61.49,,
1322.984,-62.34,,
1322.999,-63.51,,
1323.014,-62.31,,
1323.029,-61.72,,
1323.044,-61.85,,
1323.059,-62.21,,
1323.074,-62.19,,
1323.089,-61.27,,
1323.104,-62.32,,
1323.119,-62.81,,
1323.134,-62.21,,
1323.149,-61.98,,
1323.164,-62.45,,
1323.179,-62.23,,
1323.194,-61.83,,
1323.209,-61.53,,
1323.224,-61.44,,
1323.239,-61.36,,
1323.254,-61.62,,
1323.269,-61.38,,
1323.284,-61.16,,
1323.299,-61.3,,
1323.314,-62.48,,
1323.329,-63.03,,
1323.344,-61.84,,
1323.359,-62.06,,
1323.374,-62.31,,
1323.389,-62.53,,
1323.404,-62.32,,
1323.419,-62.28,,
1323.434,-62.83,,
1323.449,-63.46,,
1323.464,-62.31,,
1323.479,-62.62,,
1323.494,-63.61,,
1323.509,-63.55,,
1323.524,-61.95,,
1323.539,-61.93,,
1323.554,-63.14,,
1323.569,-62.9,,
1323.584,-61.86,,
1323.599,-61.86,,
1323.614,-62.67,,
1323.629,-63.3,,
1323.644,-62.13,,
1323.659,-61.81,,
1323.674,-63.42,,
1323.689,-63.35,,
1323.704,-61.55,,
1323.719,-61.76,,
1323.734,-62.84,,
1323.749,-64.38,,
1323.764,-63.05,,
1323.779,-62.23,,
1323.794,-63.26,,
1323.809,-64.07,,
1323.824,-62.14,,
1323.839,-61.69,,
1323.854,-63.43,,
1323.869,-63.28,,
1323.884,-61.67,,
1323.899,-62.13,,
1323.914,-63.54,,
1323.929,-62.25,,
1323.944,-61.52,,
1323.959,-62.47,,
1323.974,-63.29,,
1323.989,-62.45,,
1324.004,-61.13,,
1324.019,-61.65,,
1324.034,-62.7,,
1324.049,-61.71,,
1324.064,-61.12,,
1324.079,-62.0,,
1324.094,-62.82,,
1324.109,-61.67,,
1324.124,-61.57,,
1324.139,-61.73,,
1324.154,-62.59,,
1324.169,-61.56,,
1324.184,-61.14,,
1324.199,-61.62,,
1324.214,-61.71,,
1324.229,-61.06,,
1324.244,-61.62,,
1324.259,-62.75,,
1324.274,-61.81,,
1324.289,-61.49,,
1324.304,-61.76,,
1324.319,-62.34,,
1324.334,-61.56,,
1324.349,-61.45,,
1324.364,-61.48,,
1324.379,-62.39,,
1324.394,-61.3,,
1324.409,-60.72,,
1324.424,-61.41,,
1324.439,-61.78,,
1324.454,-60.61,,
1324.469,-60.62,,
1324.484,-61.58,,
1324.499,-61.72,,
1324.514,-61.53,,
1324.529,-61.41,,
1324.544,-61.67,,
1324.559,-61.73,,
1324.574,-61.39,,
1324.589,-61.14,,
1324.604,-61.73,,
1324.619,-62.16,,
1324.634,-61.53,,
1324.649,-61.56,,
1324.664,-62.17,,
1324.679,-61.96,,
1324.694,-61.28,,
1324.709,-61.73,,
1324.724,-62.75,,
1324.739,-62.54,,
1324.754,-61.12,,
1324.769,-60.92,,
1324.784,-62.17,,
1324.799,-61.69,,
1324.814,-60.79,,
1324.829,-61.23,,
1324.844,-62.55,,
1324.859,-61.5,,
1324.874,-60.59,,
1324.889,-60.69,,
1324.904,-61.2,,
1324.919,-61.02,,
1324.934,-60.63,,
1324.949,-60.87,,
1324.964,-61.53,,
1324.979,-61.01,,
1324.994,-60.6,,
1325.009,-61.13,,
1325.024,-61.6,,
1325.039,-60.87,,
1325.054,-60.79,,
1325.069,-61.51,,
1325.084,-61.48,,
1325.099,-60.8,,
1325.114,-60.89,,
1325.129,-61.22,,
1325.144,-61.46,,
1325.159,-60.36,,
1325.174,-60.19,,
1325.189,-61.42,,
1325.204,-61.52,,
1325.219,-60.6,,
1325.234,-61.36,,
1325.25,-61.96,,
1325.264,-60.93,,
1325.279,-60.7,,
1325.294,-60.89,,
1325.309,-61.71,,
1325.324,-61.08,,
1325.339,-60.57,,
1325.354,-61.21,,
1325.37,-62.09,,
1325.385,-60.88,,
1325.4,-60.8,,
1325.414,-61.54,,
1325.429,-61.33,,
1325.444,-60.43,,
1325.459,-60.73,,
1325.474,-61.72,,
1325.49,-60.82,,
1325.505,-60.24,,
1325.52,-60.11,,
1325.535,-60.55,,
1325.549,-60.53,,
1325.564,-60.37,,
1325.579,-60.25,,
1325.594,-60.93,,
1325.609,-60.7,,
1325.625,-60.28,,
1325.64,-61.13,,
1325.655,-61.76,,
1325.67,-60.89,,
1325.685,-60.18,,
1325.699,-61.14,,
1325.714,-61.64,,
1325.729,-60.86,,
1325.745,-60.21,,
1325.76,-60.64,,
1325.775,-61.4,,
1325.79,-60.4,,
1325.805,-60.23,,
1325.82,-60.75,,
1325.834,-61.18,,
1325.849,-60.45,,
1325.865,-60.27,,
1325.88,-60.79,,
1325.895,-61.94,,
1325.91,-61.66,,
1325.925,-60.9,,
1325.94,-61.63,,
1325.955,-61.97,,
1325.97,-61.07,,
1325.984,-61.01,,
1326.0,-61.98,,
1326.015,-61.74,,
1326.03,-60.64,,
1326.045,-61.15,,
1326.06,-61.57,,
1326.075,-61.09,,
1326.09,-60.68,,
1326.105,-61.64,,
1326.12,-61.87,,
1326.135,-60.91,,
1326.15,-61.16,,
1326.165,-62.19,,
1326.18,-62.27,,
1326.195,-61.06,,
1326.21,-61.46,,
1326.225,-62.54,,
1326.24,-61.52,,
1326.255,-60.88,,
1326.27,-61.72,,
1326.285,-61.87,,
1326.3,-61.64,,
1326.315,-60.86,,
1326.33,-61.11,,
1326.345,-62.19,,
1326.36,-62.17,,
1326.375,-60.73,,
1326.39,-60.91,,
1326.405,-62.34,,
1326.42,-61.97,,
1326.435,-61.22,,
1326.45,-62.14,,
1326.465,-63.46,,
1326.48,-61.98,,
1326.495,-61.49,,
1326.51,-62.86,,
1326.525,-63.1,,
1326.54,-61.63,,
1326.555,-62.23,,
1326.57,-63.2,,
1326.585,-62.46,,
1326.6,-61.3,,
1326.615,-61.93,,
1326.63,-62.5,,
1326.645,-61.04,,
1326.66,-60.36,,
1326.675,-61.72,,
1326.69,-62.16,,
1326.705,-61.02,,
1326.72,-60.9,,
1326.735,-61.63,,
1326.75,-61.81,,
1326.765,-61.22,,
1326.78,-60.85,,
1326.795,-61.97,,
1326.81,-62.13,,
1326.825,-61.48,,
1326.84,-61.27,,
1326.855,-61.86,,
1326.87,-61.9,,
1326.885,-61.63,,
1326.9,-61.26,,
1326.915,-61.35,,
1326.93,-61.3,,
1326.945,-61.02,,
1326.96,-61.0,,
1326.975,-61.99,,
1326.99,-61.4,,
1327.005,-60.35,,
1327.02,-60.9,,
1327.035,-61.97,,
1327.05,-61.22,,
1327.065,-60.72,,
1327.08,-61.49,,
1327.095,-62.16,,
1327.11,-61.19,,
1327.125,-60.87,,
1327.14,-61.92,,
1327.155,-62.0,,
1327.17,-61.14,,
1327.185,-61.06,,
1327.2,-62.37,,
1327.215,-61.58,,
1327.23,-60.57,,
1327.245,-61.2,,
1327.26,-61.96,,
1327.275,-60.86,,
1327.29,-60.53,,
1327.305,-61.45,,
1327.32,-61.97,,
1327.335,-61.1,,
1327.35,-60.56,,
1327.365,-60.96,,
1327.38,-61.32,,
1327.395,-61.27,,
1327.41,-60.95,,
1327.425,-61.48,,
1327.44,-61.55,,
1327.455,-60.95,,
1327.47,-60.74,,
1327.485,-61.47,,
1327.5,-61.59,,
1327.515,-60.91,,
1327.53,-60.95,,
1327.545,-61.91,,
1327.56,-61.18,,
1327.575,-60.61,,
1327.59,-60.45,,
1327.605,-61.44,,
1327.62,-61.22,,
1327.635,-60.39,,
1327.65,-60.6,,
1327.665,-61.85,,
1327.68,-60.95,,
1327.695,-60.42,,
1327.71,-61.13,,
1327.725,-62.01,,
1327.74,-60.76,,
1327.755,-60.23,,
1327.77,-61.13,,
1327.785,-61.57,,
1327.8,-60.32,,
1327.815,-60.38,,
1327.83,-61.42,,
1327.845,-61.06,,
1327.86,-59.93,,
1327.875,-60.2,,
1327.89,-60.79,,
1327.905,-60.17,,
1327.92,-59.89,,
1327.935,-60.5,,
1327.95,-60.66,,
1327.965,-60.21,,
1327.98,-59.65,,
1327.995,-60.29,,
1328.01,-60.85,,
1328.025,-60.32,,
1328.04,-60.19,,
1328.055,-60.65,,
1328.07,-60.71,,
1328.085,-60.14,,
1328.1,-60.22,,
1328.115,-60.44,,
1328.13,-60.35,,
1328.145,-59.81,,
1328.16,-60.01,,
1328.175,-60.24,,
1328.19,-60.76,,
1328.205,-59.89,,
1328.22,-59.87,,
1328.235,-60.46,,
1328.25,-60.65,,
1328.265,-60.02,,
1328.28,-60.28,,
1328.295,-61.06,,
1328.31,-60.72,,
1328.325,-60.08,,
1328.34,-60.65,,
1328.355,-61.39,,
1328.37,-60.52,,
1328.385,-60.36,,
1328.4,-61.17,,
1328.415,-61.37,,
1328.43,-60.17,,
1328.445,-60.18,,
1328.46,-61.15,,
1328.475,-60.76,,
1328.49,-59.64,,
1328.505,-59.98,,
1328.52,-60.68,,
1328.535,-60.35,,
1328.55,-59.75,,
1328.565,-60.58,,
1328.58,-60.7,,
1328.595,-60.72,,
1328.61,-60.43,,
1328.625,-60.79,,
1328.64,-61.03,,
1328.655,-61.28,,
1328.67,-60.81,,
1328.685,-61.29,,
1328.7,-61.53,,
1328.715,-61.16,,
1328.73,-60.54,,
1328.745,-61.01,,
1328.76,-61.18,,
1328.775,-60.53,,
1328.79,-60.61,,
1328.805,-61.13,,
1328.82,-61.62,,
1328.835,-60.72,,
1328.85,-60.42,,
1328.865,-61.6,,
1328.88,-62.06,,
1328.895,-60.92,,
1328.91,-61.07,,
1328.925,-62.61,,
1328.94,-62.14,,
1328.955,-61.24,,
1328.97,-61.83,,
1328.985,-63.07,,
1329.0,-61.85,,
1329.015,-61.38,,
1329.03,-62.43,,
1329.045,-62.24,,
1329.06,-61.29,,
1329.075,-61.07,,
1329.09,-62.08,,
1329.105,-62.01,,
1329.12,-61.13,,
1329.135,-61.59,,
1329.15,-63.04,,
1329.165,-62.27,,
1329.18,-61.63,,
1329.195,-61.16,,
1329.21,-61.87,,
1329.225,-61.95,,
1329.24,-61.59,,
1329.255,-61.36,,
1329.27,-62.14,,
1329.285,-62.01,,
1329.3,-61.22,,
1329.315,-61.34,,
1329.33,-62.07,,
1329.345,-61.65,,
1329.36,-60.85,,
1329.375,-61.42,,
1329.39,-62.25,,
1329.405,-62.11,,
1329.42,-61.27,,
1329.435,-61.73,,
1329.45,-62.72,,
1329.465,-62.18,,
1329.48,-61.62,,
1329.495,-62.38,,
1329.51,-63.5,,
1329.525,-62.66,,
1329.54,-62.09,,
1329.555,-62.84,,
1329.57,-63.07,,
1329.585,-62.13,,
1329.6,-62.27,,
1329.615,-63.05,,
1329.63,-62.79,,
1329.645,-62.2,,
1329.66,-62.43,,
1329.675,-63.29,,
1329.69,-62.11,,
1329.705,-61.44,,
1329.72,-61.87,,
1329.735,-62.77,,
1329.75,-61.77,,
1329.765,-61.67,,
1329.78,-62.6,,
1329.795,-62.98,,
1329.81,-62.19,,
1329.825,-61.39,,
1329.84,-62.12,,
1329.855,-63.69,,
1329.87,-62.45,,
1329.885,-61.65,,
1329.9,-62.38,,
1329.915,-63.18,,
1329.93,-61.56,,
1329.945,-61.33,,
1329.96,-61.98,,
1329.975,-62.75,,
1329.99,-61.36,,
1330.005,-61.59,,
1330.02,-62.91,,
1330.035,-62.28,,
1330.05,-61.28,,
1330.065,-61.4,,
1330.08,-63.16,,
1330.095,-62.25,,
1330.11,-61.44,,
1330.125,-62.42,,
1330.14,-63.12,,
1330.155,-61.6,,
1330.17,-61.22,,
1330.185,-62.06,,
1330.2,-62.14,,
1330.215,-61.0,,
1330.23,-61.15,,
1330.245,-61.97,,
1330.26,-61.72,,
1330.275,-60.71,,
1330.29,-61.01,,
1330.305,-61.8,,
1330.32,-60.89,,
1330.335,-60.14,,
1330.35,-60.79,,
1330.365,-61.19,,
1330.38,-60.54,,
1330.395,-60.0,,
1330.41,-60.37,,
1330.425,-60.13,,
1330.44,-59.98,,
1330.455,-59.59,,
1330.47,-59.87,,
1330.485,-59.94,,
1330.5,-59.96,,
1330.515,-59.77,,
1330.53,-59.79,,
1330.545,-59.72,,
1330.56,-59.71,,
1330.575,-59.78,,
1330.59,-59.71,,
1330.605,-59.56,,
1330.62,-59.53,,
1330.635,-59.14,,
1330.65,-59.74,,
1330.665,-59.84,,
1330.68,-59.25,,
1330.695,-59.34,,
1330.71,-60.1,,
1330.725,-60.03,,
1330.74,-59.4,,
1330.755,-59.68,,
1330.77,-60.37,,
1330.785,-60.27,,
1330.8,-59.77,,
1330.815,-60.28,,
1330.83,-60.68,,
1330.845,-60.11,,
1330.86,-59.52,,
1330.875,-60.03,,
1330.89,-60.16,,
1330.905,-59.74,,
1330.92,-59.61,,
1330.935,-60.1,,
1330.95,-60.17,,
1330.965,-60.02,,
1330.98,-59.68,,
1330.995,-60.31,,
1331.01,-60.26,,
1331.025,-59.53,,
1331.04,-59.6,,
1331.055,-60.16,,
1331.07,-59.96,,
1331.085,-59.48,,
1331.1,-60.2,,
1331.115,-60.11,,
1331.13,-59.69,,
1331.145,-59.44,,
1331.16,-60.05,,
1331.175,-60.07,,
1331.19,-59.68,,
1331.205,-59.92,,
1331.22,-60.64,,
1331.235,-60.26,,
1331.25,-59.56,,
1331.265,-59.42,,
1331.28,-60.3,,
1331.295,-60.34,,
1331.31,-59.46,,
1331.325,-59.55,,
1331.34,-60.59,,
1331.355,-60.15,,
1331.37,-59.54,,
1331.385,-59.92,,
1331.4,-60.75,,
1331.415,-60.02,,
1331.43,-59.84,,
1331.445,-60.79,,
1331.46,-61.16,,
1331.475,-60.1,,
1331.49,-60.19,,
1331.505,-60.88,,
1331.52,-60.4,,
1331.535,-59.75,,
1331.55,-60.13,,
1331.565,-60.88,,
1331.58,-60.18,,
1331.595,-59.74,,
1331.61,-60.55,,
1331.625,-60.83,,
1331.64,-60.6,,
1331.655,-60.07,,
1331.67,-60.48,,
1331.685,-60.85,,
1331.7,-60.44,,
1331.715,-60.16,,
1331.73,-60.78,,
1331.745,-60.64,,
1331.76,-60.57,,
1331.775,-60.14,,
1331.79,-60.62,,
1331.805,-60.54,,
1331.82,-59.85,,
1331.835,-59.95,,
1331.85,-60.51,,
1331.865,-60.29,,
1331.88,-59.73,,
1331.895,-60.18,,
1331.91,-60.46,,
1331.925,-60.17,,
1331.94,-59.84,,
1331.955,-60.35,,
1331.97,-60.42,,
1331.985,-60.23,,
1332.0,-60.26,,
1332.015,-60.78,,
1332.03,-60.93,,
1332.045,-60.53,,
1332.06,-60.59,,
1332.075,-61.17,,
1332.09,-60.86,,
1332.105,-60.06,,
1332.12,-60.8,,
1332.135,-61.12,,
1332.15,-60.74,,
1332.165,-60.28,,
1332.18,-61.11,,
1332.195,-61.22,,
1332.21,-60.56,,
1332.225,-60.56,,
1332.24,-61.3,,
1332.255,-61.4,,
1332.27,-61.6,,
1332.285,-61.69,,
1332.3,-61.14,,
1332.315,-61.22,,
1332.33,-62.28,,
1332.345,-62.48,,
1332.36,-62.15,,
1332.375,-62.2,,
1332.39,-62.71,,
1332.405,-61.46,,
1332.42,-61.78,,
1332.435,-62.67,,
1332.45,-61.43,,
1332.465,-61.13,,
1332.48,-62.4,,
1332.495,-62.08,,
1332.51,-61.18,,
1332.525,-61.47,,
1332.54,-62.53,,
1332.555,-62.15,,
1332.57,-61.49,,
1332.585,-61.95,,
1332.6,-62.59,,
1332.615,-61.95,,
1332.63,-61.7,,
1332.645,-62.79,,
1332.66,-62.95,,
1332.675,-62.12,,
1332.69,-62.58,,
1332.705,-63.59,,
1332.72,-62.49,,
1332.735,-61.41,,
1332.75,-62.68,,
1332.765,-62.76,,
1332.78,-62.08,,
1332.795,-61.3,,
1332.81,-62.5,,
1332.825,-63.01,,
1332.84,-62.03,,
1332.855,-61.62,,
1332.87,-62.65,,
1332.885,-63.19,,
1332.9,-61.71,,
1332.915,-61.85,,
1332.93,-63.42,,
1332.945,-63.19,,
1332.96,-62.25,,
1332.975,-62.93,,
1332.99,-63.15,,
1333.005,-62.11,,
1333.02,-61.53,,
1333.035,-62.47,,
1333.05,-62.28,,
1333.065,-61.54,,
1333.08,-61.62,,
1333.095,-62.72,,
1333.11,-62.34,,
1333.125,-61.37,,
1333.141,-61.81,,
1333.155,-62.31,,
1333.17,-61.88,,
1333.185,-61.2,,
1333.2,-61.99,,
1333.215,-62.56,,
1333.23,-61.62,,
1333.245,-61.3,,
1333.26,-62.11,,
1333.276,-62.3,,
1333.29,-61.44,,
1333.305,-61.42,,
1333.32,-62.81,,
1333.335,-61.81,,
1333.35,-60.81,,
1333.365,-61.22,,
1333.38,-61.74,,
1333.396,-61.14,,
1333.411,-62.05,,
1333.426,-62.28,,
1333.44,-61.24,,
1333.455,-61.27,,
1333.47,-62.0,,
1333.485,-61.51,,
1333.5,-61.08,,
1333.516,-61.98,,
1333.531,-62.75,,
1333.546,-61.61,,
1333.561,-61.8,,
1333.575,-62.53,,
1333.59,-62.39,,
1333.605,-61.59,,
1333.62,-61.88,,
1333.635,-62.52,,
1333.651,-61.68,,
1333.666,-61.19,,
1333.681,-61.49,,
1333.696,-61.42,,
1333.711,-60.74,,
1333.725,-61.19,,
1333.74,-61.73,,
1333.755,-61.59,,
1333.771,-61.01,,
1333.786,-61.14,,
1333.801,-62.29,,
1333.816,-61.59,,
1333.831,-60.94,,
1333.846,-61.19,,
1333.86,-62.12,,
1333.875,-61.42,,
1333.891,-60.91,,
1333.906,-61.47,,
1333.921,-62.16,,
1333.936,-60.84,,
1333.951,-60.82,,
1333.966,-61.35,,
1333.981,-61.13,,
1333.996,-60.49,,
1334.01,-60.78,,
1334.026,-61.71,,
1334.041,-60.74,,
1334.056,-60.57,,
1334.071,-61.37,,
1334.086,-61.64,,
1334.101,-60.58,,
1334.116,-60.72,,
1334.131,-61.88,,
1334.146,-61.42,,
1334.161,-60.77,,
1334.176,-61.39,,
1334.191,-62.42,,
1334.206,-61.11,,
1334.221,-60.54,,
1334.236,-61.28,,
1334.251,-61.75,,
1334.266,-60.49,,
1334.281,-60.61,,
1334.296,-61.66,,
1334.311,-61.51,,
1334.326,-60.51,,
1334.341,-60.91,,
1334.356,-62.17,,
1334.371,-61.03,,
1334.386,-60.63,,
1334.401,-61.35,,
1334.416,-61.73,,
1334.431,-60.74,,
1334.446,-60.83,,
1334.461,-61.56,,
1334.476,-61.62,,
1334.491,-60.81,,
1334.506,-61.44,,
1334.521,-61.95,,
1334.536,-60.83,,
1334.551,-60.56,,
1334.566,-61.08,,
1334.581,-61.26,,
1334.596,-60.47,,
1334.611,-60.66,,
1334.626,-61.51,,
1334.641,-61.05,,
1334.656,-60.29,,
1334.671,-60.69,,
1334.686,-61.55,,
1334.701,-60.95,,
1334.716,-60.62,,
1334.731,-61.13,,
1334.746,-61.76,,
1334.761,-60.6,,
1334.776,-60.79,,
1334.791,-61.75,,
1334.806,-61.31,,
1334.821,-60.49,,
1334.836,-61.09,,
1334.851,-62.28,,
1334.866,-60.88,,
1334.881,-60.49,,
1334.896,-61.51,,
1334.911,-61.95,,
1334.926,-60.82,,
1334.941,-60.96,,
1334.956,-61.86,,
1334.971,-61.5,,
1334.986,-60.61,,
1335.001,-60.92,,
1335.016,-61.94,,
1335.031,-61.31,,
1335.046,-60.76,,
1335.061,-61.55,,
1335.076,-61.95,,
1335.091,-60.81,,
1335.106,-60.9,,
1335.121,-61.93,,
1335.136,-61.61,,
1335.151,-60.91,,
1335.166,-61.12,,
1335.181,-61.44,,
1335.196,-61.11,,
1335.211,-60.78,,
1335.226,-61.25,,
1335.241,-61.72,,
1335.256,-60.54,,
1335.271,-60.79,,
1335.286,-61.39,,
1335.301,-61.03,,
1335.316,-60.4,,
1335.331,-60.79,,
1335.346,-61.4,,
1335.361,-61.03,,
1335.376,-60.78,,
1335.391,-61.21,,
1335.406,-62.02,,
1335.421,-60.85,,
1335.436,-60.8,,
1335.451,-61.79,,
1335.466,-61.3,,
1335.481,-60.87,,
1335.496,-61.61,,
1335.511,-61.91,,
1335.526,-60.81,,
1335.541,-60.72,,
1335.556,-62.07,,
1335.571,-61.49,,
1335.586,-60.68,,
1335.601,-61.31,,
1335.616,-62.38,,
1335.631,-61.39,,
1335.646,-60.69,,
1335.661,-61.75,,
1335.676,-62.66,,
1335.691,-61.59,,
1335.706,-61.17,,
1335.721,-62.07,,
1335.736,-61.83,,
1335.751,-60.66,,
1335.766,-61.17,,
1335.781,-61.97,,
1335.796,-61.04,,
1335.811,-60.61,,
1335.826,-61.44,,
1335.841,-61.59,,
1335.856,-60.5,,
1335.871,-60.7,,
1335.886,-62.18,,
1335.901,-61.26,,
1335.916,-60.54,,
1335.931,-60.88,,
1335.946,-61.79,,
1335.961,-60.94,,
1335.976,-60.87,,
1335.991,-61.58,,
1336.006,-62.22,,
1336.021,-61.12,,
1336.036,-60.74,,
1336.051,-61.58,,
1336.066,-61.5,,
1336.081,-60.29,,
1336.096,-60.52,,
1336.111,-61.53,,
1336.126,-61.04,,
1336.141,-60.18,,
1336.156,-60.6,,
1336.171,-61.4,,
1336.186,-61.15,,
1336.201,-60.26,,
1336.216,-60.78,,
1336.231,-61.97,,
1336.246,-61.13,,
1336.261,-60.97,,
1336.276,-61.27,,
1336.291,-61.83,,
1336.306,-60.89,,
1336.321,-61.21,,
1336.336,-61.88,,
1336.351,-61.69,,
1336.366,-60.62,,
1336.381,-60.86,,
1336.396,-62.02,,
1336.411,-60.77,,
1336.426,-60.72,,
1336.441,-61.5,,
1336.456,-61.4,,
1336.471,-61.37,,
1336.486,-61.45,,
1336.501,-61.52,,
1336.516,-61.38,,
1336.531,-61.15,,
1336.546,-61.39,,
1336.561,-61.4,,
1336.576,-61.67,,
1336.591,-61.76,,
1336.606,-61.58,,
1336.621,-61.44,,
1336.636,-61.28,,
1336.651,-61.46,,
1336.666,-61.5,,
1336.681,-61.51,,
1336.696,-61.18,,
1336.711,-61.07,,
1336.726,-61.24,,
1336.741,-61.4,,
1336.756,-61.38,,
1336.771,-61.41,,
1336.786,-61.39,,
1336.801,-61.49,,
1336.816,-61.44,,
1336.831,-61.23,,
1336.846,-61.34,,
1336.861,-61.21,,
1336.876,-61.48,,
1336.891,-61.3,,
1336.906,-61.72,,
1336.921,-61.72,,
1336.936,-61.75,,
1336.951,-61.91,,
1336.966,-62.1,,
1336.981,-61.68,,
1336.996,-61.25,,
1337.011,-61.55,,
1337.026,-62.03,,
1337.041,-61.83,,
1337.056,-61.55,,
1337.071,-61.77,,
1337.086,-61.81,,
1337.101,-61.73,,
1337.116,-61.73,,
1337.131,-61.78,,
1337.146,-61.72,,
1337.161,-61.63,,
1337.176,-61.67,,
1337.191,-61.79,,
1337.206,-61.95,,
1337.221,-62.29,,
1337.236,-62.02,,
1337.251,-61.29,,
1337.266,-61.59,,
1337.281,-62.52,,
1337.296,-61.79,,
1337.311,-61.52,,
1337.326,-61.72,,
1337.341,-62.06,,
1337.356,-61.49,,
1337.371,-61.5,,
1337.386,-62.48,,
1337.401,-62.12,,
1337.416,-61.61,,
1337.431,-61.87,,
1337.446,-62.4,,
1337.461,-61.83,,
1337.476,-61.52,,
1337.491,-61.94,,
1337.506,-62.44,,
1337.521,-61.54,,
1337.536,-61.61,,
1337.551,-62.9,,
1337.566,-62.44,,
1337.581,-61.35,,
1337.596,-61.5,,
1337.611,-62.3,,
1337.626,-61.85,,
1337.641,-61.26,,
1337.656,-61.84,,
1337.671,-62.69,,
1337.686,-61.64,,
1337.701,-61.25,,
1337.716,-62.42,,
1337.731,-62.63,,
1337.746,-61.31,,
1337.761,-61.68,,
1337.776,-63.16,,
1337.791,-62.44,,
1337.806,-61.5,,
1337.821,-62.34,,
1337.836,-63.91,,
1337.851,-62.41,,
1337.866,-62.05,,
1337.881,-62.68,,
1337.896,-62.83,,
1337.911,-61.66,,
1337.926,-61.77,,
1337.941,-62.69,,
1337.956,-62.08,,
1337.971,-61.19,,
1337.986,-61.36,,
1338.001,-62.51,,
1338.016,-62.06,,
1338.031,-61.39,,
1338.046,-61.76,,
1338.061,-62.77,,
1338.076,-61.94,,
1338.091,-61.75,,
1338.106,-62.42,,
1338.121,-62.75,,
1338.136,-61.53,,
1338.151,-62.55,,
1338.166,-63.56,,
1338.181,-62.21,,
1338.196,-61.4,,
1338.211,-62.47,,
1338.226,-62.51,,
1338.241,-61.07,,
1338.256,-61.5,,
1338.271,-62.68,,
1338.286,-61.77,,
1338.301,-60.89,,
1338.316,-61.89,,
1338.331,-63.16,,
1338.346,-61.36,,
1338.361,-60.97,,
1338.376,-61.93,,
1338.391,-62.25,,
1338.406,-61.27,,
1338.421,-61.23,,
1338.436,-62.41,,
1338.451,-61.82,,
1338.466,-61.14,,
1338.481,-61.39,,
1338.496,-62.26,,
1338.511,-60.83,,
1338.526,-60.4,,
1338.541,-61.31,,
1338.556,-61.17,,
1338.571,-60.31,,
1338.586,-60.49,,
1338.601,-61.56,,
1338.616,-61.03,,
1338.631,-60.27,,
1338.646,-60.78,,
1338.661,-61.52,,
1338.676,-60.54,,
1338.691,-60.37,,
1338.706,-60.96,,
1338.721,-61.29,,
1338.736,-60.43,,
1338.751,-60.59,,
1338.766,-61.52,,
1338.781,-61.23,,
1338.796,-60.39,,
1338.811,-60.56,,
1338.826,-61.19,,
1338.841,-60.53,,
1338.856,-60.13,,
1338.871,-60.32,,
1338.886,-61.11,,
1338.901,-60.31,,
1338.916,-60.15,,
1338.931,-60.65,,
1338.946,-60.78,,
1338.961,-60.01,,
1338.976,-60.09,,
1338.991,-60.85,,
1339.006,-60.66,,
1339.021,-59.9,,
1339.036,-60.14,,
1339.051,-60.78,,
1339.066,-60.18,,
1339.081,-59.75,,
1339.096,-60.08,,
1339.111,-60.78,,
1339.126,-59.82,,
1339.141,-60.78,,
1339.156,-60.66,,
1339.171,-59.99,,
1339.186,-60.05,,
1339.201,-61.1,,
1339.216,-60.35,,
1339.231,-59.96,,
1339.246,-60.59,,
1339.261,-60.72,,
1339.276,-60.02,,
1339.291,-59.86,,
1339.306,-61.26,,
1339.321,-60.77,,
1339.336,-59.65,,
1339.351,-60.15,,
1339.366,-61.38,,
1339.381,-60.73,,
1339.396,-60.0,,
1339.411,-60.32,,
1339.426,-60.94,,
1339.441,-59.95,,
1339.456,-59.87,,
1339.471,-60.68,,
1339.486,-60.72,,
1339.501,-59.87,,
1339.516,-60.29,,
1339.531,-61.16,,
1339.546,-60.35,,
1339.561,-59.98,,
1339.576,-60.62,,
1339.591,-61.08,,
1339.606,-60.14,,
1339.621,-60.01,,
1339.636,-61.11,,
1339.651,-60.89,,
1339.666,-60.1,,
1339.681,-60.52,,
1339.696,-61.08,,
1339.711,-60.52,,
1339.726,-59.95,,
1339.741,-60.56,,
1339.756,-61.05,,
1339.771,-60.29,,
1339.786,-59.94,,
1339.801,-60.76,,
1339.816,-61.08,,
1339.831,-60.62,,
1339.846,-60.82,,
1339.861,-61.33,,
1339.876,-61.57,,
1339.891,-61.73,,
1339.906,-61.66,,
1339.921,-61.74,,
1339.936,-62.02,,
1339.951,-62.25,,
1339.966,-62.33,,
1339.981,-62.5,,
1339.996,-62.35,,
1340.011,-62.95,,
1340.026,-62.73,,
1340.041,-62.2,,
1340.056,-62.04,,
1340.071,-62.33,,
1340.086,-62.14,,
1340.101,-62.14,,
1340.116,-62.29,,
1340.131,-62.95,,
1340.146,-61.64,,
1340.161,-61.35,,
1340.176,-62.59,,
1340.191,-62.79,,
1340.206,-61.35,,
1340.221,-62.34,,
1340.236,-63.54,,
1340.251,-62.46,,
1340.266,-62.06,,
1340.281,-63.03,,
1340.296,-63.63,,
1340.311,-62.0,,
1340.326,-61.91,,
1340.341,-63.79,,
1340.356,-63.44,,
1340.371,-61.92,,
1340.386,-62.59,,
1340.401,-64.19,,
1340.416,-62.73,,
1340.431,-62.14,,
1340.446,-63.66,,
1340.461,-64.82,,
1340.476,-62.79,,
1340.491,-62.33,,
1340.506,-63.94,,
1340.521,-64.47,,
1340.536,-62.85,,
1340.551,-63.22,,
1340.566,-63.57,,
1340.581,-62.58,,
1340.596,-62.43,,
1340.611,-63.57,,
1340.626,-63.7,,
1340.641,-62.39,,
1340.656,-63.48,,
1340.671,-64.42,,
1340.686,-62.92,,
1340.701,-62.56,,
1340.716,-64.43,,
1340.731,-64.45,,
1340.746,-63.16,,
1340.761,-63.07,,
1340.776,-64.99,,
1340.791,-64.14,,
1340.806,-63.15,,
1340.821,-64.23,,
1340.836,-64.35,,
1340.851,-63.05,,
1340.866,-62.68,,
1340.881,-64.01,,
1340.896,-62.51,,
1340.911,-61.78,,
1340.926,-62.51,,
1340.941,-62.79,,
1340.956,-61.22,,
1340.971,-61.59,,
1340.986,-61.64,,
1341.001,-61.45,,
1341.016,-60.73,,
1341.031,-61.43,,
1341.046,-61.81,,
1341.061,-61.4,,
1341.076,-61.31,,
1341.091,-61.98,,
1341.106,-62.21,,
1341.121,-61.25,,
1341.136,-62.07,,
1341.151,-62.3,,
1341.167,-61.97,,
1341.181,-61.43,,
1341.196,-61.93,,
1341.211,-62.19,,
1341.226,-60.97,,
1341.241,-60.39,,
1341.256,-61.33,,
1341.271,-61.49,,
1341.286,-60.59,,
1341.302,-61.06,,
1341.316,-61.68,,
1341.331,-61.3,,
1341.346,-60.52,,
1341.361,-61.49,,
1341.376,-61.57,,
1341.391,-60.89,,
1341.406,-60.9,,
1341.422,-61.48,,
1341.437,-61.2,,
1341.452,-60.8,,
1341.466,-61.02,,
1341.481,-60.87,,
1341.496,-60.88,,
1341.511,-61.2,,
1341.526,-60.61,,
1341.542,-60.33,,
1341.557,-60.65,,
1341.572,-61.35,,
1341.587,-61.41,,
1341.601,-61.12,,
1341.616,-60.72,,
1341.631,-61.37,,
1341.646,-61.29,,
1341.661,-60.69,,
1341.677,-60.78,,
1341.692,-61.28,,
1341.707,-61.04,,
1341.722,-60.47,,
1341.737,-61.03,,
1341.751,-60.85,,
1341.766,-60.53,,
1341.781,-60.44,,
1341.797,-61.04,,
1341.812,-60.61,,
1341.827,-59.93,,
1341.842,-60.42,,
1341.857,-60.75,,
1341.872,-60.3,,
1341.887,-59.98,,
1341.901,-60.54,,
1341.917,-60.76,,
1341.932,-60.38,,
1341.947,-60.22,,
1341.962,-61.2,,
1341.977,-60.65,,
1341.992,-60.61,,
1342.007,-61.16,,
1342.022,-61.72,,
1342.036,-60.61,,
1342.052,-60.65,,
1342.067,-61.02,,
1342.082,-60.32,,
1342.097,-60.38,,
1342.112,-60.83,,
1342.127,-60.82,,
1342.142,-60.02,,
1342.157,-60.19,,
1342.172,-60.8,,
1342.187,-60.27,,
1342.202,-59.94,,
1342.217,-60.31,,
1342.232,-60.65,,
1342.247,-60.79,,
1342.262,-60.68,,
1342.277,-60.93,,
1342.292,-60.89,,
1342.307,-60.68,,
1342.322,-60.69,,
1342.337,-61.11,,
1342.352,-61.37,,
1342.367,-60.61,,
1342.382,-61.09,,
1342.397,-61.29,,
1342.412,-60.5,,
1342.427,-60.6,,
1342.442,-61.37,,
1342.457,-61.23,,
1342.472,-60.27,,
1342.487,-60.93,,
1342.502,-61.36,,
1342.517,-60.34,,
1342.532,-60.28,,
1342.547,-61.49,,
1342.562,-61.2,,
1342.577,-60.15,,
1342.592,-60.44,,
1342.607,-61.07,,
1342.622,-60.72,,
1342.637,-60.17,,
1342.652,-61.07,,
1342.667,-61.19,,
1342.682,-61.03,,
1342.697,-61.43,,
1342.712,-61.32,,
1342.727,-61.22,,
1342.742,-61.04,,
1342.757,-61.55,,
1342.772,-61.72,,
1342.787,-60.99,,
1342.802,-61.18,,
1342.817,-61.22,,
1342.832,-61.23,,
1342.847,-61.03,,
1342.862,-61.12,,
1342.877,-61.11,,
1342.892,-61.35,,
1342.907,-61.57,,
1342.922,-61.45,,
1342.937,-61.54,,
1342.952,-61.69,,
1342.967,-61.71,,
1342.982,-61.49,,
1342.997,-61.41,,
1343.012,-61.32,,
1343.027,-61.36,,
1343.042,-61.55,,
1343.057,-61.16,,
1343.072,-61.2,,
1343.087,-62.71,,
1343.102,-62.03,,
1343.117,-62.13,,
1343.132,-62.42,,
1343.147,-62.14,,
1343.162,-62.06,,
1343.177,-62.18,,
1343.192,-62.62,,
1343.207,-62.29,,
1343.222,-62.0,,
1343.237,-62.66,,
1343.252,-62.61,,
1343.267,-62.06,,
1343.282,-61.84,,
1343.297,-62.82,,
1343.312,-62.24,,
1343.327,-61.64,,
1343.342,-62.26,,
1343.357,-62.34,,
1343.372,-61.8,,
1343.387,-61.3,,
1343.402,-62.25,,
1343.417,-62.12,,
1343.432,-61.58,,
1343.447,-61.6,,
1343.462,-61.82,,
1343.477,-61.97,,
1343.492,-61.65,,
1343.507,-62.22,,
1343.522,-62.5,,
1343.537,-63.73,,
1343.552,-62.26,,
1343.567,-62.0,,
1343.582,-62.92,,
1343.597,-63.99,,
1343.612,-62.58,,
1343.627,-62.76,,
1343.642,-63.77,,
1343.657,-63.42,,
1343.672,-62.48,,
1343.687,-62.06,,
1343.702,-61.79,,
1343.717,-62.28,,
1343.732,-62.29,,
1343.747,-62.26,,
1343.762,-62.31,,
1343.777,-62.23,,
1343.792,-62.74,,
1343.807,-61.97,,
1343.822,-63.16,,
1343.837,-63.52,,
1343.852,-62.82,,
1343.867,-62.35,,
1343.882,-63.78,,
1343.897,-63.42,,
1343.912,-61.89,,
1343.927,-62.28,,
1343.942,-62.1,,
1343.957,-62.52,,
1343.972,-62.39,,
1343.987,-61.91,,
1344.002,-61.76,,
1344.017,-62.67,,
1344.032,-62.07,,
1344.047,-61.51,,
1344.062,-61.85,,
1344.077,-62.99,,
1344.092,-62.0,,
1344.107,-62.22,,
1344.122,-61.92,,
1344.137,-62.39,,
1344.152,-62.66,,
1344.167,-62.27,,
1344.182,-61.9,,
1344.197,-62.68,,
1344.212,-62.63,,
1344.227,-61.85,,
1344.242,-61.84,,
1344.257,-62.21,,
1344.272,-61.96,,
1344.287,-61.44,,
1344.302,-61.64,,
1344.317,-61.76,,
1344.332,-61.72,,
1344.347,-61.29,,
1344.362,-61.57,,
1344.377,-61.91,,
1344.392,-63.07,,
1344.407,-61.74,,
1344.422,-61.71,,
1344.437,-62.67,,
1344.452,-63.03,,
1344.467,-62.29,,
1344.482,-62.56,,
1344.497,-63.14,,
1344.512,-62.45,,
1344.527,-62.22,,
1344.542,-61.51,,
1344.557,-62.11,,
1344.572,-62.2,,
1344.587,-62.11,,
1344.602,-61.69,,
1344.617,-62.67,,
1344.632,-62.34,,
1344.647,-61.83,,
1344.662,-61.64,,
1344.677,-62.05,,
1344.692,-62.03,,
1344.707,-62.11,,
1344.722,-62.31,,
1344.737,-62.7,,
1344.752,-62.08,,
1344.767,-61.71,,
1344.782,-62.71,,
1344.797,-62.86,,
1344.812,-63.77,,
1344.827,-61.88,,
1344.842,-61.39,,
1344.857,-62.46,,
1344.872,-63.1,,
1344.887,-61.49,,
1344.902,-61.48,,
1344.917,-63.2,,
1344.932,-62.57,,
1344.947,-62.67,,
1344.962,-62.83,,
1344.977,-62.72,,
1344.992,-63.23,,
1345.007,-63.35,,
1345.022,-62.73,,
1345.037,-63.07,,
1345.052,-63.41,,
1345.067,-63.72,,
1345.082,-63.22,,
1345.097,-64.17,,
1345.112,-64.06,,
1345.127,-63.08,,
1345.142,-62.39,,
1345.157,-63.48,,
1345.172,-63.48,,
1345.187,-62.99,,
1345.202,-62.72,,
1345.217,-62.02,,
1345.232,-63.2,,
1345.247,-63.83,,
1345.262,-62.78,,
1345.277,-62.72,,
1345.292,-64.15,,
1345.307,-63.88,,
1345.322,-63.29,,
1345.337,-63.76,,
1345.352,-65.11,,
1345.367,-63.7,,
1345.382,-63.79,,
1345.397,-62.74,,
1345.412,-63.74,,
1345.427,-63.83,,
1345.442,-63.58,,
1345.457,-63.04,,
1345.472,-63.95,,
1345.487,-63.34,,
1345.502,-62.61,,
1345.517,-62.93,,
1345.532,-63.87,,
1345.547,-63.17,,
1345.562,-62.36,,
1345.577,-63.1,,
1345.592,-63.45,,
1345.607,-64.04,,
1345.622,-63.24,,
1345.637,-63.19,,
1345.652,-63.53,,
1345.667,-63.49,,
1345.682,-64.62,,
1345.697,-65.28,,
1345.712,-64.8,,
1345.727,-65.09,,
1345.742,-65.17,,
1345.757,-64.61,,
1345.772,-63.95,,
1345.787,-63.7,,
1345.802,-64.06,,
1345.817,-62.35,,
1345.832,-62.42,,
1345.847,-64.57,,
1345.862,-63.87,,
1345.877,-62.44,,
1345.892,-63.64,,
1345.907,-63.86,,
1345.922,-63.06,,
1345.937,-63.63,,
1345.952,-63.98,,
1345.967,-63.35,,
1345.982,-62.9,,
1345.997,-63.17,,
1346.012,-63.35,,
1346.027,-63.28,,
1346.042,-63.42,,
1346.057,-63.63,,
1346.072,-63.11,,
1346.087,-62.97,,
1346.102,-63.04,,
1346.117,-62.66,,
1346.132,-62.61,,
1346.147,-63.25,,
1346.162,-62.91,,
1346.177,-62.63,,
1346.192,-64.24,,
1346.207,-63.57,,
1346.222,-63.56,,
1346.237,-64.29,,
1346.252,-63.85,,
1346.267,-64.44,,
1346.282,-64.79,,
1346.297,-64.72,,
1346.312,-64.49,,
1346.327,-64.18,,
1346.342,-64.65,,
1346.357,-64.66,,
1346.372,-64.67,,
1346.387,-64.44,,
1346.402,-64.25,,
1346.417,-64.27,,
1346.432,-64.2,,
1346.447,-64.1,,
1346.462,-64.22,,
1346.477,-63.6,,
1346.492,-63.96,,
1346.507,-66.73,,
1346.522,-64.77,,
1346.537,-63.1,,
1346.552,-64.5,,
1346.567,-65.66,,
1346.582,-64.14,,
1346.597,-64.09,,
1346.612,-64.49,,
1346.627,-63.72,,
1346.642,-62.88,,
1346.657,-63.33,,
1346.672,-64.39,,
1346.687,-62.65,,
1346.702,-62.16,,
1346.717,-62.67,,
1346.732,-62.61,,
1346.747,-61.56,,
1346.762,-62.04,,
1346.777,-63.52,,
1346.792,-62.71,,
1346.807,-61.59,,
1346.822,-62.43,,
1346.837,-64.37,,
1346.852,-62.69,,
1346.867,-62.06,,
1346.882,-63.29,,
1346.897,-63.42,,
1346.912,-63.63,,
1346.927,-65.31,,
1346.942,-63.1,,
1346.957,-62.24,,
1346.972,-63.67,,
1346.987,-64.68,,
1347.002,-62.47,,
1347.017,-62.42,,
1347.032,-64.03,,
1347.047,-63.38,,
1347.062,-62.04,,
1347.077,-62.61,,
1347.092,-64.51,,
1347.107,-62.73,,
1347.122,-62.06,,
1347.137,-63.96,,
1347.152,-64.76,,
1347.167,-62.73,,
1347.182,-62.67,,
1347.197,-62.9,,
1347.212,-62.71,,
1347.227,-62.95,,
1347.242,-62.98,,
1347.257,-63.29,,
1347.272,-62.23,,
1347.287,-62.0,,
1347.302,-62.19,,
1347.317,-62.44,,
1347.332,-62.24,,
1347.347,-63.62,,
1347.362,-62.76,,
1347.377,-61.63,,
1347.392,-62.11,,
1347.407,-63.77,,
1347.422,-62.67,,
1347.437,-62.39,,
1347.452,-63.28,,
1347.467,-63.72,,
1347.482,-62.44,,
1347.497,-62.93,,
1347.512,-62.55,,
1347.527,-62.25,,
1347.542,-62.13,,
1347.557,-62.12,,
1347.572,-62.37,,
1347.587,-62.95,,
1347.602,-62.37,,
1347.617,-61.95,,
1347.632,-62.28,,
1347.647,-62.65,,
1347.662,-63.75,,
1347.677,-63.61,,
1347.692,-62.87,,
1347.707,-63.49,,
1347.722,-64.57,,
1347.737,-63.69,,
1347.752,-63.2,,
1347.767,-63.73,,
1347.782,-64.24,,
1347.797,-63.35,,
1347.812,-63.77,,
1347.827,-64.78,,
1347.842,-63.93,,
1347.857,-63.17,,
1347.872,-65.54,,
1347.887,-64.89,,
1347.902,-63.08,,
1347.917,-63.41,,
1347.932,-63.47,,
1347.947,-63.17,,
1347.962,-63.48,,
1347.977,-63.59,,
1347.992,-63.15,,
1348.007,-63.15,,
1348.022,-63.18,,
1348.037,-63.28,,
1348.052,-63.75,,
1348.067,-63.66,,
1348.082,-63.54,,
1348.097,-62.92,,
1348.112,-62.85,,
1348.127,-63.59,,
1348.142,-64.28,,
1348.157,-62.97,,
1348.172,-62.5,,
1348.187,-63.31,,
1348.202,-63.79,,
1348.217,-62.71,,
1348.232,-62.7,,
1348.247,-63.36,,
1348.262,-63.03,,
1348.277,-62.74,,
1348.292,-63.37,,
1348.307,-64.32,,
1348.322,-62.53,,
1348.337,-62.79,,
1348.352,-63.06,,
1348.367,-62.41,,
1348.382,-62.48,,
1348.397,-63.09,,
1348.412,-62.79,,
1348.427,-61.96,,
1348.442,-61.88,,
1348.457,-62.78,,
1348.472,-61.95,,
1348.487,-62.02,,
1348.502,-62.31,,
1348.517,-62.4,,
1348.532,-62.29,,
1348.547,-62.33,,
1348.562,-63.38,,
1348.577,-62.1,,
1348.592,-61.26,,
1348.607,-62.82,,
1348.622,-63.36,,
1348.637,-61.6,,
1348.652,-62.32,,
1348.667,-62.73,,
1348.682,-61.47,,
1348.697,-61.47,,
1348.712,-62.16,,
1348.727,-61.88,,
1348.742,-60.96,,
1348.757,-61.34,,
1348.772,-62.09,,
1348.787,-61.09,,
1348.802,-60.7,,
1348.817,-61.43,,
1348.832,-61.84,,
1348.847,-60.95,,
1348.862,-61.98,,
1348.877,-61.33,,
1348.892,-60.87,,
1348.907,-61.4,,
1348.922,-62.16,,
1348.937,-60.89,,
1348.952,-60.93,,
1348.967,-61.69,,
1348.982,-61.97,,
1348.997,-61.06,,
1349.012,-61.18,,
1349.027,-62.33,,
1349.042,-61.48,,
1349.057,-60.48,,
1349.072,-60.88,,
1349.087,-61.76,,
1349.102,-61.27,,
1349.117,-61.01,,
1349.132,-61.52,,
1349.147,-61.16,,
1349.162,-60.88,,
1349.177,-62.38,,
1349.193,-62.43,,
1349.207,-61.31,,
1349.222,-61.51,,
1349.237,-62.59,,
1349.252,-62.17,,
1349.267,-61.25,,
1349.282,-61.67,,
1349.297,-62.54,,
1349.313,-61.74,,
1349.328,-61.89,,
1349.343,-62.88,,
1349.357,-62.05,,
1349.372,-61.34,,
1349.387,-61.96,,
1349.402,-62.47,,
1349.417,-62.12,,
1349.432,-62.03,,
1349.448,-62.34,,
1349.463,-61.63,,
1349.478,-60.99,,
1349.492,-61.24,,
1349.507,-62.1,,
1349.522,-61.15,,
1349.537,-60.8,,
1349.552,-61.93,,
1349.568,-61.68,,
1349.583,-61.66,,
1349.598,-62.1,,
1349.613,-61.84,,
1349.628,-61.61,,
1349.642,-62.05,,
1349.657,-61.47,,
1349.672,-61.57,,
1349.688,-61.7,,
1349.703,-62.11,,
1349.718,-62.69,,
1349.733,-61.6,,
1349.748,-62.07,,
1349.763,-62.96,,
1349.777,-62.37,,
1349.792,-61.81,,
1349.807,-62.67,,
1349.823,-63.58,,
1349.838,-62.12,,
1349.853,-61.84,,
1349.868,-61.99,,
1349.883,-62.78,,
1349.898,-62.38,,
1349.913,-61.94,,
1349.927,-62.14,,
1349.943,-62.02,,
1349.958,-62.08,,
1349.973,-62.68,,
1349.988,-61.68,,
1350.003,-61.89,,
1350.018,-62.69,,
1350.033,-62.53,,
1350.048,-61.97,,
1350.063,-62.49,,
1350.078,-63.69,,
1350.093,-62.84,,
1350.108,-62.0,,
1350.123,-62.81,,
1350.138,-63.97,,
1350.153,-63.12,,
1350.168,-63.93,,
1350.183,-63.2,,
1350.198,-62.63,,
1350.213,-62.83,,
1350.228,-64.14,,
1350.243,-62.57,,
1350.258,-62.14,,
1350.273,-62.78,,
1350.288,-63.64,,
1350.303,-62.11,,
1350.318,-61.87,,
1350.333,-62.69,,
1350.348,-62.19,,
1350.363,-61.3,,
1350.378,-61.76,,
1350.393,-61.93,,
1350.408,-61.19,,
1350.423,-60.84,,
1350.438,-61.55,,
1350.453,-61.37,,
1350.468,-61.12,,
1350.483,-62.43,,
1350.498,-62.72,,
1350.513,-61.22,,
1350.528,-61.64,,
1350.543,-62.82,,
1350.558,-61.87,,
1350.573,-60.9,,
1350.588,-61.64,,
1350.603,-62.11,,
1350.618,-61.26,,
1350.633,-61.07,,
1350.648,-60.97,,
1350.663,-61.14,,
1350.678,-61.03,,
1350.693,-61.27,,
1350.708,-60.97,,
1350.723,-60.28,,
1350.738,-61.28,,
1350.753,-61.15,,
1350.768,-60.57,,
1350.783,-60.75,,
1350.798,-61.64,,
1350.813,-61.33,,
1350.828,-60.56,,
1350.843,-61.13,,
1350.858,-61.8,,
1350.873,-61.01,,
1350.888,-60.23,,
1350.903,-61.13,,
1350.918,-61.39,,
1350.933,-60.6,,
1350.948,-61.32,,
1350.963,-61.04,,
1350.978,-60.19,,
1350.993,-60.76,,
1351.008,-61.22,,
1351.023,-60.64,,
1351.038,-60.18,,
1351.053,-61.38,,
1351.068,-61.63,,
1351.083,-60.77,,
1351.098,-60.6,,
1351.113,-61.79,,
1351.128,-61.75,,
1351.143,-60.55,,
1351.158,-60.88,,
1351.173,-61.11,,
1351.188,-60.11,,
1351.203,-59.86,,
1351.218,-60.47,,
1351.233,-60.38,,
1351.248,-59.94,,
1351.263,-60.5,,
1351.278,-60.89,,
1351.293,-59.95,,
1351.308,-60.25,,
1351.323,-61.29,,
1351.338,-60.77,,
1351.353,-60.48,,
1351.368,-60.9,,
1351.383,-61.93,,
1351.398,-61.6,,
1351.413,-61.57,,
1351.428,-62.41,,
1351.443,-61.97,,
1351.458,-61.55,,
1351.473,-61.72,,
1351.488,-61.73,,
1351.503,-61.65,,
1351.518,-61.75,,
1351.533,-62.66,,
1351.548,-61.41,,
1351.563,-61.48,,
1351.578,-63.15,,
1351.593,-62.9,,
1351.608,-61.95,,
1351.623,-62.28,,
1351.638,-63.15,,
1351.653,-63.41,,
1351.668,-63.36,,
1351.683,-63.85,,
1351.698,-63.52,,
1351.713,-63.09,,
1351.728,-64.5,,
1351.743,-63.28,,
1351.758,-62.57,,
1351.773,-63.12,,
1351.788,-64.04,,
1351.803,-62.52,,
1351.818,-62.22,,
1351.833,-63.15,,
1351.848,-62.75,,
1351.863,-61.81,,
1351.878,-62.38,,
1351.893,-63.41,,
1351.908,-61.97,,
1351.923,-62.47,,
1351.938,-64.01,,
1351.953,-62.33,,
1351.968,-62.86,,
1351.983,-64.05,,
1351.998,-64.38,,
1352.013,-62.91,,
1352.028,-63.37,,
1352.043,-64.55,,
1352.058,-62.67,,
1352.073,-61.97,,
1352.088,-63.15,,
1352.103,-62.7,,
1352.118,-61.83,,
1352.133,-62.27,,
1352.148,-63.28,,
1352.163,-62.18,,
1352.178,-61.57,,
1352.193,-62.82,,
1352.208,-63.64,,
1352.223,-62.81,,
1352.238,-62.1,,
1352.253,-63.86,,
1352.268,-63.22,,
1352.283,-63.44,,
1352.298,-64.11,,
1352.313,-63.42,,
1352.328,-62.42,,
1352.343,-63.43,,
1352.358,-62.8,,
1352.373,-62.52,,
1352.388,-62.24,,
1352.403,-62.33,,
1352.418,-62.4,,
1352.433,-62.07,,
1352.448,-62.06,,
1352.463,-62.24,,
1352.478,-62.65,,
1352.493,-63.14,,
1352.508,-62.15,,
1352.523,-62.45,,
1352.538,-62.33,,
1352.553,-63.08,,
1352.568,-62.97,,
1352.583,-62.18,,
1352.598,-62.54,,
1352.613,-62.73,,
1352.628,-62.64,,
1352.643,-62.11,,
1352.658,-62.51,,
1352.673,-62.73,,
1352.688,-63.12,,
1352.703,-61.93,,
1352.718,-62.15,,
1352.733,-62.01,,
1352.748,-62.21,,
1352.763,-62.25,,
1352.778,-62.37,,
1352.793,-61.85,,
1352.808,-62.28,,
1352.823,-62.03,,
1352.838,-61.96,,
1352.853,-62.49,,
1352.868,-63.03,,
1352.883,-62.8,,
1352.898,-62.14,,
1352.913,-62.28,,
1352.928,-61.77,,
1352.943,-61.18,,
1352.958,-62.07,,
1352.973,-61.63,,
1352.988,-61.23,,
1353.003,-60.91,,
1353.018,-61.71,,
1353.033,-61.39,,
1353.048,-60.78,,
1353.063,-61.21,,
1353.078,-62.07,,
1353.093,-60.82,,
1353.108,-61.13,,
1353.123,-62.32,,
1353.138,-61.63,,
1353.153,-61.67,,
1353.168,-62.6,,
1353.183,-62.14,,
1353.198,-61.48,,
1353.213,-62.2,,
1353.228,-62.85,,
1353.243,-62.45,,
1353.258,-61.49,,
1353.273,-62.69,,
1353.288,-61.39,,
1353.303,-60.99,,
1353.318,-61.93,,
1353.333,-62.59,,
1353.348,-61.14,,
1353.363,-62.15,,
1353.378,-62.6,,
1353.393,-61.66,,
1353.408,-61.37,,
1353.423,-62.57,,
1353.438,-62.35,,
1353.453,-61.38,,
1353.468,-62.19,,
1353.483,-63.25,,
1353.498,-61.57,,
1353.513,-61.51,,
1353.528,-62.46,,
1353.543,-62.04,,
1353.558,-61.17,,
1353.573,-61.11,,
1353.588,-61.22,,
1353.603,-60.5,,
1353.618,-60.58,,
1353.633,-61.16,,
1353.648,-60.82,,
1353.663,-60.1,,
1353.678,-60.89,,
1353.693,-60.7,,
1353.708,-60.4,,
1353.723,-60.87,,
1353.738,-61.58,,
1353.753,-60.55,,
1353.768,-61.22,,
1353.783,-62.02,,
1353.798,-61.28,,
1353.813,-60.51,,
1353.828,-61.71,,
1353.843,-61.81,,
1353.858,-60.59,,
1353.873,-60.48,,
1353.888,-61.39,,
1353.903,-61.17,,
1353.918,-60.87,,
1353.933,-61.76,,
1353.948,-61.34,,
1353.963,-60.63,,
1353.978,-61.41,,
1353.993,-61.74,,
1354.008,-61.53,,
1354.023,-61.02,,
1354.038,-61.74,,
1354.053,-61.7,,
1354.068,-61.18,,
1354.083,-61.22,,
1354.098,-61.71,,
1354.113,-61.32,,
1354.128,-60.8,,
1354.143,-60.66,,
1354.158,-60.13,,
1354.173,-60.05,,
1354.188,-60.65,,
1354.203,-60.47,,
1354.218,-60.12,,
1354.233,-60.39,,
1354.248,-60.3,,
1354.263,-60.07,,
1354.278,-59.85,,
1354.293,-60.42,,
1354.308,-60.46,,
1354.323,-60.73,,
1354.338,-60.17,,
1354.353,-60.39,,
1354.368,-60.16,,
1354.383,-60.39,,
1354.398,-60.09,,
1354.413,-60.12,,
1354.428,-60.15,,
1354.443,-60.4,,
1354.458,-60.36,,
1354.473,-59.91,,
1354.488,-60.02,,
1354.503,-60.3,,
1354.518,-60.56,,
1354.533,-60.81,,
1354.548,-60.34,,
1354.563,-60.28,,
1354.578,-60.98,,
1354.593,-61.77,,
1354.608,-61.78,,
1354.623,-61.17,,
1354.638,-61.25,,
1354.653,-61.85,,
1354.668,-61.9,,
1354.683,-61.23,,
1354.698,-60.87,,
1354.713,-60.78,,
1354.728,-61.11,,
1354.743,-60.84,,
1354.758,-60.8,,
1354.773,-60.36,,
1354.788,-60.51,,
1354.803,-61.02,,
1354.818,-60.93,,
1354.833,-60.35,,
1354.848,-60.68,,
1354.863,-61.07,,
1354.878,-61.32,,
1354.893,-61.17,,
1354.908,-60.94,,
1354.923,-61.17,,
1354.938,-61.07,,
1354.953,-61.86,,
1354.968,-61.61,,
1354.983,-61.05,,
1354.998,-61.66,,
1355.013,-61.47,,
1355.028,-61.16,,
1355.043,-61.1,,
1355.058,-61.85,,
1355.073,-61.75,,
1355.088,-62.09,,
1355.103,-61.87,,
1355.118,-62.05,,
1355.133,-61.64,,
1355.148,-63.19,,
1355.163,-63.7,,
1355.178,-62.66,,
1355.193,-62.11,,
1355.208,-63.69,,
1355.223,-63.2,,
1355.238,-61.98,,
1355.253,-62.64,,
1355.268,-62.98,,
1355.283,-62.59,,
1355.298,-62.63,,
1355.313,-62.98,,
1355.328,-61.78,,
1355.343,-61.61,,
1355.358,-63.11,,
1355.373,-62.55,,
1355.388,-61.38,,
1355.403,-62.93,,
1355.418,-64.28,,
1355.433,-62.55,,
1355.448,-63.25,,
1355.463,-63.33,,
1355.478,-63.41,,
1355.493,-62.62,,
1355.508,-63.09,,
1355.523,-62.6,,
1355.538,-61.34,,
1355.553,-62.25,,
1355.568,-62.86,,
1355.583,-61.87,,
1355.598,-61.09,,
1355.613,-61.91,,
1355.628,-61.75,,
1355.643,-62.36,,
1355.658,-62.31,,
1355.673,-62.15,,
1355.688,-61.92,,
1355.703,-62.75,,
1355.718,-63.0,,
1355.733,-62.55,,
1355.748,-61.81,,
1355.763,-63.1,,
1355.778,-63.52,,
1355.793,-62.19,,
1355.808,-61.74,,
1355.823,-61.82,,
1355.838,-62.03,,
1355.853,-62.37,,
1355.868,-62.36,,
1355.883,-61.8,,
1355.898,-61.35,,
1355.913,-62.03,,
1355.928,-61.99,,
1355.943,-61.65,,
1355.958,-61.25,,
1355.973,-62.34,,
1355.988,-62.19,,
1356.003,-62.5,,
1356.018,-62.83,,
1356.033,-62.58,,
1356.048,-62.62,,
1356.063,-62.56,,
1356.078,-63.15,,
1356.093,-61.61,,
1356.108,-61.74,,
1356.123,-62.63,,
1356.138,-63.13,,
1356.153,-61.63,,
1356.168,-61.95,,
1356.183,-61.8,,
1356.198,-62.37,,
1356.213,-62.32,,
1356.228,-61.76,,
1356.243,-61.96,,
1356.258,-61.93,,
1356.273,-63.29,,
1356.288,-62.82,,
1356.303,-61.76,,
1356.318,-61.96,,
1356.333,-63.09,,
1356.348,-63.43,,
1356.363,-62.01,,
1356.378,-61.92,,
1356.393,-61.99,,
1356.408,-61.83,,
1356.423,-62.31,,
1356.438,-62.68,,
1356.453,-61.07,,
1356.468,-61.25,,
1356.483,-62.65,,
1356.498,-62.17,,
1356.513,-61.02,,
1356.528,-61.46,,
1356.543,-62.51,,
1356.558,-61.88,,
1356.573,-62.27,,
1356.588,-62.71,,
1356.603,-62.55,,
1356.618,-61.49,,
1356.633,-62.98,,
1356.648,-61.84,,
1356.663,-60.88,,
1356.678,-61.43,,
1356.693,-62.35,,
1356.708,-61.29,,
1356.723,-61.38,,
1356.738,-62.79,,
1356.753,-62.85,,
1356.768,-62.27,,
1356.783,-62.73,,
1356.798,-62.38,,
1356.813,-62.15,,
1356.828,-63.73,,
1356.843,-64.51,,
1356.858,-62.85,,
1356.873,-62.43,,
1356.888,-64.44,,
1356.903,-63.87,,
1356.918,-62.37,,
1356.933,-63.43,,
1356.948,-63.25,,
1356.963,-62.96,,
1356.978,-62.87,,
1356.993,-63.66,,
1357.008,-61.67,,
1357.023,-61.72,,
1357.038,-63.21,,
1357.053,-62.84,,
1357.068,-61.65,,
1357.083,-61.56,,
1357.098,-63.16,,
1357.113,-61.96,,
1357.128,-62.27,,
1357.143,-62.04,,
1357.158,-61.9,,
1357.173,-61.58,,
1357.188,-62.45,,
1357.203,-62.03,,
1357.219,-61.08,,
1357.233,-61.68,,
1357.248,-62.06,,
1357.263,-61.45,,
1357.278,-60.89,,
1357.293,-61.75,,
1357.308,-61.99,,
1357.323,-63.12,,
1357.339,-62.65,,
1357.354,-61.97,,
1357.369,-62.21,,
1357.383,-63.08,,
1357.398,-63.59,,
1357.413,-63.04,,
1357.428,-62.11,,
1357.443,-62.32,,
1357.458,-62.26,,
1357.474,-62.26,,
1357.489,-61.59,,
1357.504,-61.21,,
1357.518,-61.93,,
1357.533,-62.98,,
1357.548,-62.23,,
1357.563,-61.77,,
1357.578,-61.28,,
1357.594,-61.82,,
1357.609,-61.8,,
1357.624,-61.74,,
1357.639,-61.81,,
1357.654,-61.46,,
1357.668,-62.45,,
1357.683,-62.82,,
1357.698,-61.89,,
1357.714,-61.91,,
1357.729,-62.44,,
1357.744,-61.7,,
1357.759,-61.32,,
1357.774,-61.29,,
1357.789,-61.34,,
1357.803,-60.98,,
1357.818,-61.79,,
1357.833,-61.69,,
1357.849,-61.12,,
1357.864,-61.05,,
1357.879,-61.75,,
1357.894,-61.42,,
1357.909,-61.16,,
1357.924,-61.62,,
1357.939,-61.6,,
1357.953,-61.8,,
1357.969,-62.06,,
1357.984,-62.18,,
1357.999,-61.33,,
1358.014,-61.67,,
1358.029,-61.85,,
1358.044,-61.27,,
1358.059,-60.9,,
1358.074,-61.3,,
1358.089,-61.87,,
1358.104,-61.0,,
1358.119,-62.04,,
1358.134,-61.95,,
1358.149,-61.23,,
1358.164,-61.72,,
1358.179,-62.58,,
1358.194,-62.15,,
1358.209,-61.83,,
1358.224,-62.43,,
1358.239,-63.13,,
1358.254,-62.39,,
1358.269,-62.47,,
1358.284,-62.79,,
1358.299,-61.42,,
1358.314,-61.77,,
1358.329,-61.54,,
1358.344,-60.87,,
1358.359,-60.6,,
1358.374,-61.04,,
1358.389,-61.0,,
1358.404,-60.91,,
1358.419,-60.64,,
1358.434,-61.14,,
1358.449,-60.61,,
1358.464,-60.81,,
1358.479,-61.66,,
1358.494,-61.46,,
1358.509,-61.34,,
1358.524,-61.47,,
1358.539,-61.45,,
1358.554,-61.24,,
1358.569,-61.34,,
1358.584,-61.59,,
1358.599,-60.55,,
1358.614,-60.63,,
1358.629,-61.91,,
1358.644,-60.82,,
1358.659,-60.81,,
1358.674,-60.97,,
1358.689,-60.76,,
1358.704,-60.54,,
1358.719,-60.98,,
1358.734,-61.32,,
1358.749,-60.31,,
1358.764,-60.67,,
1358.779,-61.26,,
1358.794,-60.65,,
1358.809,-61.07,,
1358.824,-61.04,,
1358.839,-60.73,,
1358.854,-60.6,,
1358.869,-60.79,,
1358.884,-61.16,,
1358.899,-60.72,,
1358.914,-60.77,,
1358.929,-61.66,,
1358.944,-60.78,,
1358.959,-60.44,,
1358.974,-61.08,,
1358.989,-60.76,,
1359.004,-60.64,,
1359.019,-60.9,,
1359.034,-61.37,,
1359.049,-60.96,,
1359.064,-61.58,,
1359.079,-62.68,,
1359.094,-61.64,,
1359.109,-61.28,,
1359.124,-62.0,,
1359.139,-61.36,,
1359.154,-61.04,,
1359.169,-61.74,,
1359.184,-61.67,,
1359.199,-61.18,,
1359.214,-61.39,,
1359.229,-61.8,,
1359.244,-60.61,,
1359.259,-60.43,,
1359.274,-61.5,,
1359.289,-61.18,,
1359.304,-61.15,,
1359.319,-61.78,,
1359.334,-61.89,,
1359.349,-61.15,,
1359.364,-61.86,,
1359.379,-62.17,,
1359.394,-60.98,,
1359.409,-60.85,,
1359.424,-62.66,,
1359.439,-61.69,,
1359.454,-61.48,,
1359.469,-62.44,,
1359.484,-62.33,,
1359.499,-60.99,,
1359.514,-61.42,,
1359.529,-62.71,,
1359.544,-61.11,,
1359.559,-61.02,,
1359.574,-62.21,,
1359.589,-61.7,,
1359.604,-61.79,,
1359.619,-62.19,,
1359.634,-62.03,,
1359.649,-61.36,,
1359.664,-61.83,,
1359.679,-62.55,,
1359.694,-61.16,,
1359.709,-61.7,,
1359.724,-62.4,,
1359.739,-61.08,,
1359.754,-61.59,,
1359.769,-62.61,,
1359.784,-62.03,,
1359.799,-61.08,,
1359.814,-61.58,,
1359.829,-62.56,,
1359.844,-61.5,,
1359.859,-62.01,,
1359.874,-63.03,,
1359.889,-61.82,,
1359.904,-61.6,,
1359.919,-62.96,,
1359.934,-62.36,,
1359.949,-61.97,,
1359.964,-62.49,,
1359.979,-63.36,,
1359.994,-62.45,,
1360.009,-63.0,,
1360.024,-64.4,,
1360.039,-62.73,,
1360.054,-62.6,,
1360.069,-63.71,,
1360.084,-62.41,,
1360.099,-61.84,,
1360.114,-62.54,,
1360.129,-62.86,,
1360.144,-61.56,,
1360.159,-61.7,,
1360.174,-62.22,,
1360.189,-61.0,,
1360.204,-60.84,,
1360.219,-61.98,,
1360.234,-61.65,,
1360.249,-61.48,,
1360.264,-62.47,,
1360.279,-62.28,,
1360.294,-61.68,,
1360.309,-62.07,,
1360.324,-62.47,,
1360.339,-60.94,,
1360.354,-61.16,,
1360.369,-62.24,,
1360.384,-61.59,,
1360.399,-61.77,,
1360.414,-62.21,,
1360.429,-62.12,,
1360.444,-62.14,,
1360.459,-62.06,,
1360.474,-61.95,,
1360.489,-60.76,,
1360.504,-61.76,,
1360.519,-63.18,,
1360.534,-61.39,,
1360.549,-61.96,,
1360.564,-62.76,,
1360.579,-61.95,,
1360.594,-61.78,,
1360.609,-61.91,,
1360.624,-62.1,,
1360.639,-60.91,,
1360.654,-62.03,,
1360.669,-62.85,,
1360.684,-61.55,,
1360.699,-61.62,,
1360.714,-62.22,,
1360.729,-61.95,,
1360.744,-61.61,,
1360.759,-62.86,,
1360.774,-61.53,,
1360.789,-61.13,,
1360.804,-62.66,,
1360.819,-63.28,,
1360.834,-61.6,,
1360.849,-61.51,,
1360.864,-62.07,,
1360.879,-62.19,,
1360.894,-62.03,,
1360.909,-62.73,,
1360.924,-62.41,,
1360.939,-61.13,,
1360.954,-61.33,,
1360.969,-62.58,,
1360.984,-61.24,,
1360.999,-60.96,,
1361.014,-61.03,,
1361.029,-60.13,,
1361.044,-60.43,,
1361.059,-61.44,,
1361.074,-60.47,,
1361.089,-59.87,,
1361.104,-60.37,,
1361.119,-60.93,,
1361.134,-59.88,,
1361.149,-59.89,,
1361.164,-60.71,,
1361.179,-60.14,,
1361.194,-60.31,,
1361.209,-61.24,,
1361.224,-60.44,,
1361.239,-60.03,,
1361.254,-60.27,,
1361.269,-60.79,,
1361.284,-60.15,,
1361.299,-60.64,,
1361.314,-61.36,,
1361.329,-60.35,,
1361.344,-60.78,,
1361.359,-61.95,,
1361.374,-61.1,,
1361.389,-60.62,,
1361.404,-61.17,,
1361.419,-61.98,,
1361.434,-60.87,,
1361.449,-61.4,,
1361.464,-61.64,,
1361.479,-61.07,,
1361.494,-61.99,,
1361.509,-62.64,,
1361.524,-61.17,,
1361.539,-61.47,,
1361.554,-61.92,,
1361.569,-61.07,,
1361.584,-60.84,,
1361.599,-61.53,,
1361.614,-61.89,,
1361.629,-61.45,,
1361.644,-61.89,,
1361.659,-62.18,,
1361.674,-61.57,,
1361.689,-61.21,,
1361.704,-62.89,,
1361.719,-61.58,,
1361.734,-60.87,,
1361.749,-62.51,,
1361.764,-61.91,,
1361.779,-61.49,,
1361.794,-61.91,,
1361.809,-62.32,,
1361.824,-61.31,,
1361.839,-61.69,,
1361.854,-62.82,,
1361.869,-61.7,,
1361.884,-60.78,,
1361.899,-62.05,,
1361.914,-61.44,,
1361.929,-60.44,,
1361.944,-60.75,,
1361.959,-61.65,,
1361.974,-60.69,,
1361.989,-61.36,,
1362.004,-61.76,,
1362.019,-61.1,,
1362.034,-61.73,,
1362.049,-62.9,,
1362.064,-61.55,,
1362.079,-61.43,,
1362.094,-62.66,,
1362.109,-62.1,,
1362.124,-61.41,,
1362.139,-62.44,,
1362.154,-62.17,,
1362.169,-61.53,,
1362.184,-62.16,,
1362.199,-63.45,,
1362.214,-61.77,,
1362.229,-61.43,,
1362.244,-61.79,,
1362.259,-61.73,,
1362.274,-61.05,,
1362.289,-61.79,,
1362.304,-61.32,,
1362.319,-60.38,,
1362.334,-61.19,,
1362.349,-61.8,,
1362.364,-60.73,,
1362.379,-61.07,,
1362.394,-61.42,,
1362.409,-60.91,,
1362.424,-60.44,,
1362.439,-61.39,,
1362.454,-60.48,,
1362.469,-59.84,,
1362.484,-60.15,,
1362.499,-60.6,,
1362.514,-59.86,,
1362.529,-60.47,,
1362.544,-60.75,,
1362.559,-60.06,,
1362.574,-60.35,,
1362.589,-61.14,,
1362.604,-60.56,,
1362.619,-60.04,,
1362.634,-60.64,,
1362.649,-61.57,,
1362.664,-60.67,,
1362.679,-60.97,,
1362.694,-61.55,,
1362.709,-60.2,,
1362.724,-61.06,,
1362.739,-62.3,,
1362.754,-61.59,,
1362.769,-60.51,,
1362.784,-61.34,,
1362.799,-61.41,,
1362.814,-60.44,,
1362.829,-61.35,,
1362.844,-61.1,,
1362.859,-60.29,,
1362.874,-60.73,,
1362.889,-61.88,,
1362.904,-60.72,,
1362.919,-60.37,,
1362.934,-61.74,,
1362.949,-61.79,,
1362.964,-60.81,,
1362.979,-61.3,,
1362.994,-61.55,,
1363.009,-60.98,,
1363.024,-61.24,,
1363.039,-62.28,,
1363.054,-61.3,,
1363.069,-61.71,,
1363.084,-62.59,,
1363.099,-61.44,,
1363.114,-61.69,,
1363.129,-62.84,,
1363.144,-62.07,,
1363.159,-62.03,,
1363.174,-62.63,,
1363.189,-63.63,,
1363.204,-62.05,,
1363.219,-63.31,,
1363.234,-64.62,,
1363.249,-63.53,,
1363.264,-64.16,,
1363.279,-67.0,,
1363.294,-65.33,,
1363.309,-64.74,,
1363.324,-65.47,,
1363.339,-64.26,,
1363.354,-62.86,,
1363.369,-64.36,,
1363.384,-64.0,,
1363.399,-63.13,,
1363.414,-63.85,,
1363.429,-65.48,,
1363.444,-63.86,,
1363.459,-63.06,,
1363.474,-65.36,,
1363.489,-65.44,,
1363.504,-63.99,,
1363.519,-66.5,,
1363.534,-65.12,,
1363.549,-63.33,,
1363.564,-65.08,,
1363.579,-67.95,,
1363.594,-65.06,,
1363.609,-66.07,,
1363.624,-66.91,,
1363.639,-64.82,,
1363.654,-64.18,,
1363.669,-66.63,,
1363.684,-64.7,,
1363.699,-63.35,,
1363.714,-64.94,,
1363.729,-66.82,,
1363.744,-64.82,,
1363.759,-65.39,,
1363.774,-67.08,,
1363.789,-64.91,,
1363.804,-65.64,,
1363.819,-71.01,,
1363.834,-65.58,,
1363.849,-65.12,,
1363.864,-69.28,,
1363.879,-67.26,,
1363.894,-64.85,,
1363.909,-67.19,,
1363.924,-68.38,,
1363.939,-64.82,,
1363.954,-64.9,,
1363.969,-67.53,,
1363.984,-66.78,,
1363.999,-63.97,,
1364.014,-63.98,,
1364.029,-63.82,,
1364.044,-63.12,,
1364.059,-63.71,,
1364.074,-62.59,,
1364.089,-61.63,,
1364.104,-62.81,,
1364.119,-63.01,,
1364.134,-61.98,,
1364.149,-62.13,,
1364.164,-61.88,,
1364.179,-62.08,,
1364.194,-62.14,,
1364.209,-62.62,,
1364.224,-61.64,,
1364.239,-61.06,,
1364.254,-61.95,,
1364.269,-61.59,,
1364.284,-61.5,,
1364.299,-61.47,,
1364.314,-61.02,,
1364.329,-60.92,,
1364.344,-61.89,,
1364.359,-62.18,,
1364.374,-61.74,,
1364.389,-61.41,,
1364.404,-62.62,,
1364.419,-62.55,,
1364.434,-62.55,,
1364.449,-62.89,,
1364.464,-62.72,,
1364.479,-62.2,,
1364.494,-63.36,,
1364.509,-63.46,,
1364.524,-61.73,,
1364.539,-61.69,,
1364.554,-62.04,,
1364.569,-61.71,,
1364.584,-61.46,,
1364.599,-61.73,,
1364.614,-60.95,,
1364.629,-61.12,,
1364.644,-62.72,,
1364.659,-61.89,,
1364.674,-61.84,,
1364.689,-61.88,,
1364.704,-62.1,,
1364.719,-62.52,,
1364.734,-62.51,,
1364.749,-62.07,,
1364.764,-60.93,,
1364.779,-61.41,,
1364.794,-61.42,,
1364.809,-61.75,,
1364.824,-61.63,,
1364.839,-61.44,,
1364.854,-61.16,,
1364.869,-60.81,,
1364.884,-61.54,,
1364.899,-61.45,,
1364.914,-61.33,,
1364.929,-61.38,,
1364.944,-61.21,,
1364.959,-61.73,,
1364.974,-62.05,,
1364.989,-61.62,,
1365.004,-61.58,,
1365.019,-62.58,,
1365.034,-62.66,,
1365.049,-62.91,,
1365.064,-63.06,,
1365.079,-62.87,,
1365.094,-63.38,,
1365.109,-63.24,,
1365.124,-63.3,,
1365.139,-63.3,,
1365.154,-63.75,,
1365.169,-64.14,,
1365.184,-64.07,,
1365.199,-63.48,,
1365.214,-63.78,,
1365.229,-63.38,,
1365.245,-63.18,,
1365.259,-63.27,,
1365.274,-63.19,,
1365.289,-62.39,,
1365.304,-63.41,,
1365.319,-63.65,,
1365.334,-63.15,,
1365.349,-62.11,,
1365.365,-63.3,,
1365.38,-63.21,,
1365.395,-63.84,,
1365.409,-62.92,,
1365.424,-62.58,,
1365.439,-61.81,,
1365.454,-61.92,,
1365.469,-62.45,,
1365.484,-61.98,,
1365.5,-61.46,,
1365.515,-61.11,,
1365.53,-61.79,,
1365.544,-62.35,,
1365.559,-63.16,,
1365.574,-62.76,,
1365.589,-62.29,,
1365.604,-62.92,,
1365.62,-63.33,,
1365.635,-64.07,,
1365.65,-63.28,,
1365.665,-63.19,,
1365.68,-62.4,,
1365.694,-62.49,,
1365.709,-62.96,,
1365.724,-62.34,,
1365.74,-61.69,,
1365.755,-61.43,,
1365.77,-61.61,,
1365.785,-61.37,,
1365.8,-62.41,,
1365.815,-61.93,,
1365.83,-61.0,,
1365.844,-61.62,,
1365.859,-62.09,,
1365.875,-62.46,,
1365.89,-62.59,,
1365.905,-62.71,,
1365.92,-61.8,,
1365.935,-62.16,,
1365.95,-62.95,,
1365.965,-62.21,,
1365.979,-61.97,,
1365.995,-61.98,,
1366.01,-61.88,,
1366.025,-61.43,,
1366.04,-62.55,,
1366.055,-61.97,,
1366.07,-60.87,,
1366.085,-61.83,,
1366.1,-61.44,,
1366.115,-61.62,,
1366.13,-61.83,,
1366.145,-61.86,,
1366.16,-60.93,,
1366.175,-61.63,,
1366.19,-62.35,,
1366.205,-61.44,,
1366.22,-61.83,,
1366.235,-61.62,,
1366.25,-62.22,,
1366.265,-62.38,,
1366.28,-63.09,,
1366.295,-62.83,,
1366.31,-61.41,,
1366.325,-61.92,,
1366.34,-62.39,,
1366.355,-63.49,,
1366.37,-63.02,,
1366.385,-62.48,,
1366.4,-61.62,,
1366.415,-61.6,,
1366.43,-62.72,,
1366.445,-62.92,,
1366.46,-63.15,,
1366.475,-62.71,,
1366.49,-62.81,,
1366.505,-62.87,,
1366.52,-64.33,,
1366.535,-64.02,,
1366.55,-62.6,,
1366.565,-62.26,,
1366.58,-62.29,,
1366.595,-62.43,,
1366.61,-62.85,,
1366.625,-62.27,,
1366.64,-61.4,,
1366.655,-61.43,,
1366.67,-62.5,,
1366.685,-62.18,,
1366.7,-63.05,,
1366.715,-62.09,,
1366.73,-62.21,,
1366.745,-62.34,,
1366.76,-63.53,,
1366.775,-63.42,,
1366.79,-63.11,,
1366.805,-62.97,,
1366.82,-62.55,,
1366.835,-63.3,,
1366.85,-63.65,,
1366.865,-63.41,,
1366.88,-62.45,,
1366.895,-61.89,,
1366.91,-62.51,,
1366.925,-62.01,,
1366.94,-62.42,,
1366.955,-61.98,,
1366.97,-61.97,,
1366.985,-61.66,,
1367.0,-62.13,,
1367.015,-62.32,,
1367.03,-62.05,,
1367.045,-61.96,,
1367.06,-61.58,,
1367.075,-62.42,,
1367.09,-62.51,,
1367.105,-62.73,,
1367.12,-62.21,,
1367.135,-62.03,,
1367.15,-62.61,,
1367.165,-62.58,,
1367.18,-62.42,,
1367.195,-61.67,,
1367.21,-62.31,,
1367.225,-61.59,,
1367.24,-62.1,,
1367.255,-61.9,,
1367.27,-61.01,,
1367.285,-61.33,,
1367.3,-61.23,,
1367.315,-62.05,,
1367.33,-61.62,,
1367.345,-61.46,,
1367.36,-61.38,,
1367.375,-61.39,,
1367.39,-61.68,,
1367.405,-61.86,,
1367.42,-62.59,,
1367.435,-61.2,,
1367.45,-61.47,,
1367.465,-61.39,,
1367.48,-60.91,,
1367.495,-60.94,,
1367.51,-61.08,,
1367.525,-61.01,,
1367.54,-60.52,,
1367.555,-61.35,,
1367.57,-61.15,,
1367.585,-60.93,,
1367.6,-61.47,,
1367.615,-61.08,,
1367.63,-61.17,,
1367.645,-62.32,,
1367.66,-62.33,,
1367.675,-61.11,,
1367.69,-61.41,,
1367.705,-61.46,,
1367.72,-61.32,,
1367.735,-61.62,,
1367.75,-62.24,,
1367.765,-60.65,,
1367.78,-60.95,,
1367.795,-62.21,,
1367.81,-61.38,,
1367.825,-61.2,,
1367.84,-61.62,,
1367.855,-60.86,,
1367.87,-60.39,,
1367.885,-61.19,,
1367.9,-61.65,,
1367.915,-60.67,,
1367.93,-61.39,,
1367.945,-61.35,,
1367.96,-60.6,,
1367.975,-61.64,,
1367.99,-62.03,,
1368.005,-60.68,,
1368.02,-60.85,,
1368.035,-61.68,,
1368.05,-61.35,,
1368.065,-61.56,,
1368.08,-62.78,,
1368.095,-61.39,,
1368.11,-61.21,,
1368.125,-61.58,,
1368.14,-61.75,,
1368.155,-61.17,,
1368.17,-61.18,,
1368.185,-61.07,,
1368.2,-60.81,,
1368.215,-60.89,,
1368.23,-61.37,,
1368.245,-60.88,,
1368.26,-60.69,,
1368.275,-61.26,,
1368.29,-60.32,,
1368.305,-60.54,,
1368.32,-60.69,,
1368.335,-60.74,,
1368.35,-60.5,,
1368.365,-60.58,,
1368.38,-60.61,,
1368.395,-59.86,,
1368.41,-60.38,,
1368.425,-60.18,,
1368.44,-60.29,,
1368.455,-60.34,,
1368.47,-60.13,,
1368.485,-60.33,,
1368.5,-60.54,,
1368.515,-61.19,,
1368.53,-60.48,,
1368.545,-60.76,,
1368.56,-60.97,,
1368.575,-61.09,,
1368.59,-61.17,,
1368.605,-61.03,,
1368.62,-60.81,,
1368.635,-60.24,,
1368.65,-60.33,,
1368.665,-60.36,,
1368.68,-60.2,,
1368.695,-60.29,,
1368.71,-60.02,,
1368.725,-60.22,,
1368.74,-60.49,,
1368.755,-60.59,,
1368.77,-60.83,,
1368.785,-60.68,,
1368.8,-60.42,,
1368.815,-60.35,,
1368.83,-60.51,,
1368.845,-60.26,,
1368.86,-60.08,,
1368.875,-60.21,,
1368.89,-60.44,,
1368.905,-60.34,,
1368.92,-60.19,,
1368.935,-60.13,,
1368.95,-60.13,,
1368.965,-60.65,,
1368.98,-60.27,,
1368.995,-60.15,,
1369.01,-60.17,,
1369.025,-60.33,,
1369.04,-60.65,,
1369.055,-60.31,,
1369.07,-60.21,,
1369.085,-59.65,,
1369.1,-59.49,,
1369.115,-59.63,,
1369.13,-60.27,,
1369.145,-60.01,,
1369.16,-59.52,,
1369.175,-59.85,,
1369.19,-60.12,,
1369.205,-59.98,,
1369.22,-60.6,,
1369.235,-60.28,,
1369.25,-59.75,,
1369.265,-60.0,,
1369.28,-60.25,,
1369.295,-60.34,,
1369.31,-60.21,,
1369.325,-60.33,,
1369.34,-59.53,,
1369.355,-59.64,,
1369.37,-60.57,,
1369.385,-60.11,,
1369.4,-60.02,,
1369.415,-60.07,,
1369.43,-60.22,,
1369.445,-60.2,,
1369.46,-60.82,,
1369.475,-61.03,,
1369.49,-60.21,,
1369.505,-60.2,,
1369.52,-60.3,,
1369.535,-60.28,,
1369.55,-60.04,,
1369.565,-60.36,,
1369.58,-59.64,,
1369.595,-59.59,,
1369.61,-60.23,,
1369.625,-60.04,,
1369.64,-60.11,,
1369.655,-60.25,,
1369.67,-59.62,,
1369.685,-59.42,,
1369.7,-59.9,,
1369.715,-60.04,,
1369.73,-59.32,,
1369.745,-59.34,,
1369.76,-59.38,,
1369.775,-58.84,,
1369.79,-59.32,,
1369.805,-59.54,,
1369.82,-59.06,,
1369.835,-58.88,,
1369.85,-59.43,,
1369.865,-59.61,,
1369.88,-59.66,,
1369.895,-60.13,,
1369.91,-59.69,,
1369.925,-59.62,,
1369.94,-59.97,,
1369.955,-59.91,,
1369.97,-59.61,,
1369.985,-59.61,,
1370.0,-59.68,,
