wavelength_axis,light_level
1250.0,-65.01
1250.015,-66.86
1250.03,-64.88
1250.045,-63.99
1250.06,-63.77
1250.075,-64.5
1250.09,-66.47
1250.105,-65.69
1250.12,-63.19
1250.135,-62.65
1250.15,-62.94
1250.165,-64.72
1250.18,-66.86
1250.195,-64.77
1250.21,-64.02
1250.225,-64.27
1250.24,-65.49
1250.255,-67.15
1250.27,-66.11
1250.285,-64.95
1250.3,-64.15
1250.315,-64.96
1250.33,-68.57
1250.345,-69.39
1250.36,-65.97
1250.375,-65.86
1250.39,-67.01
1250.405,-69.62
1250.42,-70.84
1250.435,-69.78
1250.45,-66.52
1250.465,-66.6
1250.48,-71.5
1250.495,-210.0
1250.51,-210.0
1250.525,-69.64
1250.54,-67.64
1250.555,-66.53
1250.57,-75.11
1250.585,-72.57
1250.6,-67.46
1250.615,-65.66
1250.63,-66.76
1250.645,-69.58
1250.66,-84.66
1250.675,-73.89
1250.69,-69.05
1250.705,-66.9
1250.72,-67.33
1250.735,-73.46
1250.75,-70.6
1250.765,-65.62
1250.78,-65.59
1250.795,-66.38
1250.81,-73.92
1250.825,-210.0
1250.84,-70.42
1250.855,-68.93
1250.87,-69.41
1250.885,-70.32
1250.9,-210.0
1250.915,-210.0
1250.93,-210.0
1250.945,-70.2
1250.96,-76.69
1250.975,-210.0
1250.99,-210.0
1251.005,-210.0
1251.02,-76.47
1251.035,-69.79
1251.05,-77.16
1251.065,-210.0
1251.08,-73.05
1251.095,-69.25
1251.11,-67.38
1251.125,-75.37
1251.14,-210.0
1251.155,-210.0
1251.17,-210.0
1251.185,-73.29
1251.2,-71.1
1251.215,-210.0
1251.23,-210.0
1251.245,-210.0
1251.26,-69.08
1251.275,-69.71
1251.29,-76.89
1251.305,-210.0
1251.32,-210.0
1251.335,-71.46
1251.35,-67.38
1251.365,-66.58
1251.38,-71.9
1251.395,-69.85
1251.41,-69.48
1251.425,-66.08
1251.44,-66.47
1251.455,-69.09
1251.47,-210.0
1251.485,-72.08
1251.5,-68.15
1251.515,-66.97
1251.53,-68.75
1251.545,-72.75
1251.56,-210.0
1251.575,-76.26
1251.59,-67.18
1251.605,-67.76
1251.62,-75.29
1251.635,-210.0
1251.65,-210.0
1251.665,-68.98
1251.68,-67.44
1251.695,-67.23
1251.71,-71.25
1251.725,-78.18
1251.74,-70.46
1251.755,-65.95
1251.77,-69.35
1251.785,-73.86
1251.8,-72.76
1251.815,-67.68
1251.83,-65.19
1251.845,-66.65
1251.86,-69.42
1251.875,-71.58
1251.89,-71.62
1251.905,-67.02
1251.92,-66.91
1251.935,-68.79
1251.95,-72.85
1251.965,-69.3
1251.98,-66.68
1251.995,-63.95
1252.01,-65.05
1252.025,-66.02
1252.04,-68.86
1252.055,-67.0
1252.07,-64.63
1252.085,-67.96
1252.1,-69.83
1252.115,-74.44
1252.13,-68.66
1252.145,-65.68
1252.16,-64.57
1252.175,-66.03
1252.19,-66.27
1252.205,-67.34
1252.22,-65.41
1252.235,-65.65
1252.25,-68.71
1252.265,-210.0
1252.28,-210.0
1252.295,-68.5
1252.31,-68.58
1252.325,-68.27
1252.34,-81.43
1252.355,-77.24
1252.37,-210.0
1252.385,-69.15
1252.4,-71.39
1252.415,-78.46
1252.43,-210.0
1252.445,-210.0
1252.46,-74.57
1252.475,-74.4
1252.49,-78.31
1252.505,-210.0
1252.52,-210.0
1252.535,-210.0
1252.55,-68.18
1252.565,-74.12
1252.58,-71.61
1252.595,-70.1
1252.61,-74.21
1252.625,-67.31
1252.64,-69.32
1252.655,-67.88
1252.67,-72.02
1252.685,-68.15
1252.7,-70.74
1252.715,-66.89
1252.73,-71.18
1252.745,-70.75
1252.76,-73.31
1252.775,-68.53
1252.79,-66.48
1252.805,-69.18
1252.82,-69.7
1252.835,-70.76
1252.85,-66.3
1252.865,-67.1
1252.88,-65.95
1252.895,-68.77
1252.91,-67.22
1252.925,-66.4
1252.94,-64.46
1252.955,-64.46
1252.97,-66.21
1252.985,-65.25
1253.0,-65.83
1253.015,-64.01
1253.03,-64.76
1253.045,-64.62
1253.06,-67.3
1253.075,-67.04
1253.09,-65.09
1253.105,-65.7
1253.12,-66.01
1253.135,-67.64
1253.15,-67.66
1253.165,-67.3
1253.18,-65.62
1253.195,-68.44
1253.21,-69.03
1253.225,-74.31
1253.24,-69.19
1253.255,-67.32
1253.271,-66.6
1253.285,-68.03
1253.3,-71.17
1253.315,-66.9
1253.33,-67.02
1253.345,-65.04
1253.36,-66.21
1253.375,-65.84
1253.391,-67.57
1253.406,-67.53
1253.421,-67.08
1253.435,-65.98
1253.45,-68.3
1253.465,-68.93
1253.48,-66.16
1253.495,-66.59
1253.51,-65.17
1253.526,-67.17
1253.541,-66.5
1253.556,-68.67
1253.571,-65.56
1253.585,-65.84
1253.6,-67.24
1253.615,-66.55
1253.63,-66.74
1253.646,-64.44
1253.661,-65.35
1253.676,-65.21
1253.691,-67.37
1253.706,-65.97
1253.72,-67.88
1253.735,-65.56
1253.75,-66.35
1253.766,-66.39
1253.781,-66.9
1253.796,-66.29
1253.811,-66.45
1253.826,-69.07
1253.841,-67.5
1253.856,-71.18
1253.87,-67.26
1253.885,-68.7
1253.901,-66.71
1253.916,-69.83
1253.931,-70.18
1253.946,-69.61
1253.961,-67.39
1253.976,-65.41
1253.991,-68.6
1254.005,-69.15
1254.021,-77.55
1254.036,-67.73
1254.051,-66.88
1254.066,-67.22
1254.081,-71.53
1254.096,-73.33
1254.111,-68.9
1254.126,-68.45
1254.141,-65.85
1254.156,-71.46
1254.171,-73.19
1254.186,-75.46
1254.201,-68.39
1254.216,-69.19
1254.231,-68.43
1254.246,-74.94
1254.261,-76.6
1254.276,-68.0
1254.291,-69.15
1254.306,-68.93
1254.321,-79.15
1254.336,-70.8
1254.351,-72.8
1254.366,-68.62
1254.381,-80.63
1254.396,-210.0
1254.411,-210.0
1254.426,-210.0
1254.441,-71.89
1254.456,-69.18
1254.471,-69.62
1254.486,-210.0
1254.501,-72.3
1254.516,-70.67
1254.531,-66.72
1254.546,-68.64
1254.561,-74.03
1254.576,-93.98
1254.591,-69.31
1254.606,-66.66
1254.621,-67.94
1254.636,-81.88
1254.651,-210.0
1254.666,-210.0
1254.681,-73.3
1254.696,-68.63
1254.711,-77.28
1254.726,-210.0
1254.741,-72.9
1254.756,-68.09
1254.771,-67.44
1254.786,-77.32
1254.801,-210.0
1254.816,-210.0
1254.831,-73.28
1254.846,-71.9
1254.861,-210.0
1254.876,-210.0
1254.891,-210.0
1254.906,-210.0
1254.921,-71.89
1254.936,-69.55
1254.951,-210.0
1254.966,-210.0
1254.981,-210.0
1254.996,-210.0
1255.011,-210.0
1255.026,-210.0
1255.041,-210.0
1255.056,-210.0
1255.071,-210.0
1255.086,-210.0
1255.101,-210.0
1255.116,-210.0
1255.131,-210.0
1255.146,-210.0
1255.161,-210.0
1255.176,-210.0
1255.191,-210.0
1255.206,-210.0
1255.221,-210.0
1255.236,-210.0
1255.251,-76.23
1255.266,-72.59
1255.281,-210.0
1255.296,-76.58
1255.311,-69.03
1255.326,-66.08
1255.341,-68.12
1255.356,-80.08
1255.371,-75.96
1255.386,-71.6
1255.401,-67.56
1255.416,-65.28
1255.431,-68.16
1255.446,-73.77
1255.461,-76.76
1255.476,-71.03
1255.491,-67.14
1255.506,-67.82
1255.521,-72.72
1255.536,-76.36
1255.551,-210.0
1255.566,-67.99
1255.581,-68.99
1255.596,-92.09
1255.611,-210.0
1255.626,-210.0
1255.641,-80.87
1255.656,-68.28
1255.671,-67.21
1255.686,-74.19
1255.701,-210.0
1255.716,-73.7
1255.731,-67.6
1255.746,-70.4
1255.761,-210.0
1255.776,-210.0
1255.791,-73.72
1255.806,-69.02
1255.821,-66.94
1255.836,-74.07
1255.851,-210.0
1255.866,-83.79
1255.881,-71.43
1255.896,-67.57
1255.911,-68.75
1255.926,-86.73
1255.941,-75.81
1255.956,-72.74
1255.971,-66.87
1255.986,-66.56
1256.001,-70.17
1256.016,-69.89
1256.031,-66.25
1256.046,-65.55
1256.061,-65.34
1256.076,-66.82
1256.091,-69.88
1256.106,-68.6
1256.121,-67.63
1256.136,-69.8
1256.151,-210.0
1256.166,-210.0
1256.181,-210.0
1256.196,-77.32
1256.211,-68.42
1256.226,-74.66
1256.241,-94.73
1256.256,-71.01
1256.271,-71.65
1256.286,-67.72
1256.301,-93.16
1256.316,-210.0
1256.331,-210.0
1256.346,-210.0
1256.361,-70.46
1256.376,-210.0
1256.391,-210.0
1256.406,-210.0
1256.421,-210.0
1256.436,-76.02
1256.451,-70.79
1256.466,-70.5
1256.481,-72.11
1256.496,-70.36
1256.511,-70.19
1256.526,-69.3
1256.541,-81.29
1256.556,-68.58
1256.571,-69.77
1256.586,-67.51
1256.601,-66.49
1256.616,-65.7
1256.631,-66.82
1256.646,-67.38
1256.661,-66.46
1256.676,-71.79
1256.691,-69.84
1256.706,-71.61
1256.721,-70.35
1256.736,-70.94
1256.751,-69.75
1256.766,-68.51
1256.781,-75.25
1256.796,-210.0
1256.811,-210.0
1256.826,-210.0
1256.841,-75.92
1256.856,-68.31
1256.871,-75.85
1256.886,-73.18
1256.901,-69.48
1256.916,-67.68
1256.931,-66.49
1256.946,-69.4
1256.961,-66.87
1256.976,-68.52
1256.991,-66.03
1257.006,-65.55
1257.021,-66.77
1257.036,-70.08
1257.051,-70.7
1257.066,-67.51
1257.081,-65.54
1257.096,-65.23
1257.111,-67.48
1257.126,-65.89
1257.141,-63.62
1257.156,-63.19
1257.171,-63.65
1257.186,-64.52
1257.201,-65.44
1257.216,-65.15
1257.231,-63.46
1257.246,-64.02
1257.261,-65.44
1257.276,-66.07
1257.291,-66.22
1257.306,-63.98
1257.321,-63.47
1257.336,-64.81
1257.351,-65.45
1257.366,-65.28
1257.381,-63.95
1257.396,-62.71
1257.411,-63.77
1257.426,-66.5
1257.441,-66.58
1257.456,-66.32
1257.471,-65.68
1257.486,-65.44
1257.501,-67.71
1257.516,-69.41
1257.531,-66.83
1257.546,-63.99
1257.561,-65.2
1257.576,-66.66
1257.591,-66.89
1257.606,-66.64
1257.621,-65.42
1257.636,-65.2
1257.651,-66.1
1257.666,-70.7
1257.681,-66.1
1257.696,-65.58
1257.711,-65.65
1257.726,-66.85
1257.741,-68.33
1257.756,-68.27
1257.771,-68.0
1257.786,-65.87
1257.801,-65.85
1257.816,-65.3
1257.831,-66.12
1257.846,-64.66
1257.861,-65.13
1257.876,-64.42
1257.891,-64.81
1257.906,-65.62
1257.921,-65.96
1257.936,-65.81
1257.951,-66.09
1257.966,-71.49
1257.981,-71.94
1257.996,-73.19
1258.011,-74.66
1258.026,-73.58
1258.041,-74.98
1258.056,-71.0
1258.071,-71.58
1258.086,-210.0
1258.101,-210.0
1258.116,-210.0
1258.131,-75.13
1258.146,-210.0
1258.161,-210.0
1258.176,-75.71
1258.191,-70.8
1258.206,-67.95
1258.221,-67.57
1258.236,-68.06
1258.251,-69.41
1258.266,-70.81
1258.281,-70.36
1258.296,-68.0
1258.311,-67.69
1258.326,-67.88
1258.341,-68.08
1258.356,-67.9
1258.371,-66.63
1258.386,-66.4
1258.401,-67.83
1258.416,-68.56
1258.431,-65.07
1258.446,-65.16
1258.461,-64.76
1258.476,-65.32
1258.491,-66.87
1258.506,-67.68
1258.521,-65.99
1258.536,-65.87
1258.551,-68.57
1258.566,-68.68
1258.581,-68.62
1258.596,-68.43
1258.611,-68.22
1258.626,-68.44
1258.641,-68.35
1258.656,-70.59
1258.671,-65.26
1258.686,-66.98
1258.701,-66.35
1258.716,-66.19
1258.731,-66.54
1258.746,-67.7
1258.761,-67.76
1258.776,-66.18
1258.791,-69.21
1258.806,-66.43
1258.821,-69.74
1258.836,-67.46
1258.851,-67.11
1258.866,-66.95
1258.881,-66.11
1258.896,-68.7
1258.911,-67.46
1258.926,-73.8
1258.941,-71.1
1258.956,-68.39
1258.971,-68.69
1258.986,-70.02
1259.001,-74.52
1259.016,-69.06
1259.031,-69.6
1259.046,-66.86
1259.061,-73.64
1259.076,-70.85
1259.091,-69.82
1259.106,-66.89
1259.121,-67.07
1259.136,-71.03
1259.151,-69.64
1259.166,-70.13
1259.181,-67.34
1259.196,-70.21
1259.211,-69.05
1259.226,-75.55
1259.241,-72.94
1259.256,-71.79
1259.271,-71.56
1259.286,-75.34
1259.301,-210.0
1259.316,-81.77
1259.331,-210.0
1259.346,-210.0
1259.361,-210.0
1259.376,-210.0
1259.391,-210.0
1259.406,-210.0
1259.421,-210.0
1259.436,-210.0
1259.451,-210.0
1259.466,-210.0
1259.481,-210.0
1259.496,-210.0
1259.511,-210.0
1259.526,-210.0
1259.541,-210.0
1259.556,-210.0
1259.571,-210.0
1259.586,-210.0
1259.601,-210.0
1259.616,-210.0
1259.631,-210.0
1259.646,-210.0
1259.661,-72.65
1259.676,-210.0
1259.691,-210.0
1259.706,-210.0
1259.721,-210.0
1259.736,-210.0
1259.751,-210.0
1259.766,-210.0
1259.781,-210.0
1259.796,-210.0
1259.811,-210.0
1259.826,-210.0
1259.841,-210.0
1259.856,-210.0
1259.871,-210.0
1259.886,-210.0
1259.901,-210.0
1259.916,-210.0
1259.931,-210.0
1259.946,-210.0
1259.961,-210.0
1259.976,-210.0
1259.991,-79.08
1260.006,-210.0
1260.021,-77.61
1260.036,-210.0
1260.051,-210.0
1260.066,-210.0
1260.081,-210.0
1260.096,-210.0
1260.111,-210.0
1260.126,-210.0
1260.141,-210.0
1260.156,-210.0
1260.171,-210.0
1260.186,-210.0
1260.201,-210.0
1260.216,-210.0
1260.231,-210.0
1260.246,-210.0
1260.261,-210.0
1260.276,-210.0
1260.291,-210.0
1260.306,-210.0
1260.321,-210.0
1260.336,-210.0
1260.351,-210.0
1260.366,-210.0
1260.381,-210.0
1260.396,-210.0
1260.411,-210.0
1260.426,-210.0
1260.441,-210.0
1260.456,-210.0
1260.471,-210.0
1260.486,-210.0
1260.501,-74.78
1260.516,-210.0
1260.531,-71.65
1260.546,-210.0
1260.561,-210.0
1260.576,-71.9
1260.591,-210.0
1260.606,-72.91
1260.621,-210.0
1260.636,-210.0
1260.651,-210.0
1260.666,-210.0
1260.681,-210.0
1260.696,-210.0
1260.711,-210.0
1260.726,-210.0
1260.741,-210.0
1260.756,-210.0
1260.771,-210.0
1260.786,-210.0
1260.801,-83.6
1260.816,-71.46
1260.831,-74.94
1260.846,-68.5
1260.861,-71.46
1260.876,-69.31
1260.891,-90.32
1260.906,-77.95
1260.921,-68.64
1260.936,-69.58
1260.951,-70.77
1260.966,-81.19
1260.981,-73.03
1260.996,-210.0
1261.011,-71.28
1261.026,-81.99
1261.041,-210.0
1261.056,-210.0
1261.071,-210.0
1261.086,-69.79
1261.101,-73.37
1261.116,-72.34
1261.131,-210.0
1261.146,-80.08
1261.161,-70.73
1261.176,-210.0
1261.191,-210.0
1261.206,-210.0
1261.221,-210.0
1261.236,-78.32
1261.251,-69.92
1261.266,-210.0
1261.281,-210.0
1261.297,-76.93
1261.312,-67.67
1261.326,-66.42
1261.341,-69.85
1261.356,-74.51
1261.371,-210.0
1261.386,-68.67
1261.401,-67.12
1261.417,-71.43
1261.432,-210.0
1261.447,-210.0
1261.461,-69.6
1261.476,-72.76
1261.491,-88.44
1261.506,-210.0
1261.521,-210.0
1261.536,-79.19
1261.552,-70.74
1261.567,-74.05
1261.582,-210.0
1261.597,-210.0
1261.611,-71.47
1261.626,-67.86
1261.641,-69.47
1261.656,-210.0
1261.672,-73.51
1261.687,-68.08
1261.702,-65.54
1261.717,-67.53
1261.732,-69.65
1261.746,-210.0
1261.761,-68.04
1261.776,-67.01
1261.792,-74.16
1261.807,-210.0
1261.822,-210.0
1261.837,-80.35
1261.852,-71.69
1261.867,-70.9
1261.882,-210.0
1261.896,-210.0
1261.911,-72.75
1261.927,-210.0
1261.942,-210.0
1261.957,-210.0
1261.972,-210.0
1261.987,-210.0
1262.002,-210.0
1262.017,-210.0
1262.031,-210.0
1262.047,-210.0
1262.062,-210.0
1262.077,-210.0
1262.092,-210.0
1262.107,-77.67
1262.122,-210.0
1262.137,-210.0
1262.152,-70.45
1262.167,-71.24
1262.182,-68.8
1262.197,-210.0
1262.212,-69.93
1262.227,-79.39
1262.242,-74.48
1262.257,-210.0
1262.272,-210.0
1262.287,-210.0
1262.302,-210.0
1262.317,-210.0
1262.332,-210.0
1262.347,-210.0
1262.362,-210.0
1262.377,-81.17
1262.392,-72.04
1262.407,-71.13
1262.422,-68.27
1262.437,-73.93
1262.452,-68.01
1262.467,-72.36
1262.482,-69.86
1262.497,-69.72
1262.512,-74.65
1262.527,-78.84
1262.542,-210.0
1262.557,-74.76
1262.572,-210.0
1262.587,-71.69
1262.602,-210.0
1262.617,-210.0
1262.632,-210.0
1262.647,-210.0
1262.662,-210.0
1262.677,-210.0
1262.692,-210.0
1262.707,-210.0
1262.722,-210.0
1262.737,-73.53
1262.752,-70.57
1262.767,-70.18
1262.782,-73.08
1262.797,-66.26
1262.812,-67.03
1262.827,-67.18
1262.842,-66.16
1262.857,-67.36
1262.872,-65.95
1262.887,-67.08
1262.902,-67.04
1262.917,-71.56
1262.932,-68.06
1262.947,-68.54
1262.962,-72.21
1262.977,-68.57
1262.992,-67.41
1263.007,-66.28
1263.022,-66.9
1263.037,-64.33
1263.052,-65.15
1263.067,-64.82
1263.082,-63.97
1263.097,-64.23
1263.112,-64.64
1263.127,-66.15
1263.142,-65.6
1263.157,-65.23
1263.172,-65.4
1263.187,-66.44
1263.202,-66.5
1263.217,-65.67
1263.232,-64.13
1263.247,-64.36
1263.262,-65.41
1263.277,-66.39
1263.292,-66.54
1263.307,-65.03
1263.322,-64.45
1263.337,-64.43
1263.352,-67.48
1263.367,-66.58
1263.382,-65.97
1263.397,-65.5
1263.412,-67.57
1263.427,-69.81
1263.442,-68.6
1263.457,-67.92
1263.472,-65.96
1263.487,-65.89
1263.502,-67.53
1263.517,-66.91
1263.532,-64.67
1263.547,-64.34
1263.562,-64.73
1263.577,-65.07
1263.592,-66.68
1263.607,-63.36
1263.622,-63.07
1263.637,-63.49
1263.652,-63.71
1263.667,-64.23
1263.682,-63.06
1263.697,-62.81
1263.712,-62.78
1263.727,-65.34
1263.742,-67.84
1263.757,-65.99
1263.772,-64.9
1263.787,-65.32
1263.802,-66.12
1263.817,-70.31
1263.832,-66.57
1263.847,-65.97
1263.862,-67.71
1263.877,-74.4
1263.892,-210.0
1263.907,-75.7
1263.922,-66.01
1263.937,-66.45
1263.952,-68.22
1263.967,-69.89
1263.982,-68.03
1263.997,-66.5
1264.012,-66.83
1264.027,-68.18
1264.042,-210.0
1264.057,-75.39
1264.072,-69.54
1264.087,-70.16
1264.102,-74.26
1264.117,-210.0
1264.132,-210.0
1264.147,-210.0
1264.162,-75.85
1264.177,-210.0
1264.192,-210.0
1264.207,-210.0
1264.222,-210.0
1264.237,-210.0
1264.252,-210.0
1264.267,-210.0
1264.282,-210.0
1264.297,-73.1
1264.312,-70.97
1264.327,-71.5
1264.342,-210.0
1264.357,-210.0
1264.372,-69.73
1264.387,-68.15
1264.402,-70.26
1264.417,-80.09
1264.432,-80.39
1264.447,-79.49
1264.462,-69.68
1264.477,-69.87
1264.492,-210.0
1264.507,-210.0
1264.522,-210.0
1264.537,-210.0
1264.552,-210.0
1264.567,-210.0
1264.582,-210.0
1264.597,-210.0
1264.612,-210.0
1264.627,-210.0
1264.642,-210.0
1264.657,-210.0
1264.672,-210.0
1264.687,-210.0
1264.702,-210.0
1264.717,-210.0
1264.732,-210.0
1264.747,-210.0
1264.762,-73.82
1264.777,-78.37
1264.792,-210.0
1264.807,-210.0
1264.822,-80.06
1264.837,-72.34
1264.852,-77.8
1264.867,-210.0
1264.882,-210.0
1264.897,-210.0
1264.912,-72.55
1264.927,-73.45
1264.942,-210.0
1264.957,-210.0
1264.972,-210.0
1264.987,-84.78
1265.002,-69.97
1265.017,-70.12
1265.032,-210.0
1265.047,-68.78
1265.062,-67.53
1265.077,-68.07
1265.092,-70.33
1265.107,-79.76
1265.122,-69.84
1265.137,-67.43
1265.152,-65.59
1265.167,-67.91
1265.182,-69.76
1265.197,-69.29
1265.212,-66.03
1265.227,-64.75
1265.242,-67.27
1265.257,-70.3
1265.272,-68.25
1265.287,-64.92
1265.302,-65.39
1265.317,-66.83
1265.332,-68.68
1265.347,-68.12
1265.362,-64.85
1265.377,-65.79
1265.392,-67.65
1265.407,-72.74
1265.422,-68.01
1265.437,-66.76
1265.452,-65.43
1265.467,-66.07
1265.482,-70.76
1265.497,-67.05
1265.512,-64.67
1265.527,-64.64
1265.542,-65.4
1265.557,-68.14
1265.572,-65.76
1265.587,-63.26
1265.602,-62.55
1265.617,-63.46
1265.632,-64.52
1265.647,-63.91
1265.662,-63.09
1265.677,-62.29
1265.692,-63.31
1265.707,-65.48
1265.722,-66.2
1265.737,-64.1
1265.752,-63.99
1265.767,-65.72
1265.782,-70.17
1265.797,-74.07
1265.812,-67.55
1265.827,-68.66
1265.842,-74.0
1265.857,-210.0
1265.872,-210.0
1265.887,-71.86
1265.902,-66.9
1265.917,-67.09
1265.932,-210.0
1265.947,-75.68
1265.962,-67.83
1265.977,-65.02
1265.992,-65.58
1266.007,-70.43
1266.022,-71.78
1266.037,-66.5
1266.052,-65.31
1266.067,-66.26
1266.082,-68.15
1266.097,-68.73
1266.112,-66.85
1266.127,-65.11
1266.142,-66.06
1266.157,-73.4
1266.172,-210.0
1266.187,-69.8
1266.202,-68.1
1266.217,-69.97
1266.232,-72.01
1266.247,-210.0
1266.262,-69.92
1266.277,-68.28
1266.292,-74.24
1266.307,-78.51
1266.322,-210.0
1266.337,-70.11
1266.352,-67.45
1266.367,-68.51
1266.382,-73.85
1266.397,-74.07
1266.412,-66.9
1266.427,-65.73
1266.442,-66.55
1266.457,-68.77
1266.472,-71.16
1266.487,-66.55
1266.502,-65.45
1266.517,-66.95
1266.532,-70.25
1266.547,-70.96
1266.562,-66.85
1266.577,-65.89
1266.592,-67.05
1266.607,-74.85
1266.622,-72.46
1266.637,-67.4
1266.652,-66.85
1266.667,-66.82
1266.682,-71.96
1266.697,-210.0
1266.712,-70.0
1266.727,-66.12
1266.742,-67.55
1266.757,-72.9
1266.772,-75.67
1266.787,-67.89
1266.802,-64.64
1266.817,-67.21
1266.832,-68.63
1266.847,-67.5
1266.862,-66.56
1266.877,-64.88
1266.892,-66.55
1266.907,-68.28
1266.922,-70.51
1266.937,-66.4
1266.952,-64.71
1266.967,-64.85
1266.982,-68.14
1266.997,-72.26
1267.012,-66.23
1267.027,-66.87
1267.042,-68.73
1267.057,-210.0
1267.072,-210.0
1267.087,-68.61
1267.102,-66.87
1267.117,-67.95
1267.132,-210.0
1267.147,-210.0
1267.162,-68.94
1267.177,-66.03
1267.192,-65.67
1267.207,-71.2
1267.222,-67.32
1267.237,-67.94
1267.252,-64.87
1267.267,-66.54
1267.282,-70.55
1267.297,-66.91
1267.312,-66.65
1267.327,-64.65
1267.342,-67.53
1267.357,-68.38
1267.372,-68.86
1267.387,-66.34
1267.402,-64.26
1267.417,-66.87
1267.432,-67.72
1267.447,-74.63
1267.462,-67.62
1267.477,-66.14
1267.492,-71.08
1267.507,-73.6
1267.522,-79.02
1267.537,-66.85
1267.552,-66.53
1267.567,-68.84
1267.582,-87.09
1267.597,-210.0
1267.612,-67.89
1267.627,-69.09
1267.642,-75.99
1267.657,-210.0
1267.672,-210.0
1267.687,-77.92
1267.702,-71.19
1267.717,-72.22
1267.732,-210.0
1267.747,-210.0
1267.762,-71.68
1267.777,-70.28
1267.792,-75.56
1267.807,-210.0
1267.822,-77.75
1267.837,-69.03
1267.852,-70.93
1267.867,-73.88
1267.882,-210.0
1267.897,-70.25
1267.912,-67.43
1267.927,-66.18
1267.942,-69.04
1267.957,-71.67
1267.972,-72.18
1267.987,-68.54
1268.002,-65.62
1268.017,-69.63
1268.032,-69.81
1268.047,-68.18
1268.062,-65.11
1268.077,-64.81
1268.092,-68.56
1268.107,-75.68
1268.122,-68.54
1268.137,-64.94
1268.152,-64.78
1268.167,-67.35
1268.182,-68.61
1268.197,-69.16
1268.212,-64.99
1268.227,-66.37
1268.242,-69.47
1268.257,-70.52
1268.272,-68.92
1268.287,-65.5
1268.302,-66.42
1268.317,-70.78
1268.332,-210.0
1268.347,-76.61
1268.362,-69.37
1268.377,-72.15
1268.392,-210.0
1268.407,-210.0
1268.422,-210.0
1268.437,-210.0
1268.452,-210.0
1268.467,-210.0
1268.482,-210.0
1268.497,-210.0
1268.512,-210.0
1268.527,-210.0
1268.542,-210.0
1268.557,-210.0
1268.572,-210.0
1268.587,-210.0
1268.602,-210.0
1268.617,-210.0
1268.632,-210.0
1268.647,-210.0
1268.662,-210.0
1268.677,-81.8
1268.692,-210.0
1268.707,-210.0
1268.722,-210.0
1268.737,-210.0
1268.752,-210.0
1268.767,-210.0
1268.782,-210.0
1268.797,-210.0
1268.812,-72.59
1268.827,-72.57
1268.842,-210.0
1268.857,-210.0
1268.872,-74.4
1268.887,-68.21
1268.902,-71.25
1268.917,-210.0
1268.932,-210.0
1268.947,-76.11
1268.962,-67.91
1268.977,-78.79
1268.992,-210.0
1269.007,-210.0
1269.022,-75.84
1269.037,-67.72
1269.052,-73.01
1269.067,-210.0
1269.082,-210.0
1269.097,-69.91
1269.112,-67.63
1269.127,-210.0
1269.142,-210.0
1269.157,-210.0
1269.172,-70.24
1269.188,-70.06
1269.202,-75.26
1269.217,-210.0
1269.232,-210.0
1269.247,-67.16
1269.262,-69.89
1269.277,-76.02
1269.292,-210.0
1269.307,-210.0
1269.323,-75.37
1269.338,-69.88
1269.352,-72.44
1269.367,-210.0
1269.382,-210.0
1269.397,-74.27
1269.412,-71.1
1269.427,-71.1
1269.443,-210.0
1269.458,-210.0
1269.473,-68.19
1269.487,-66.06
1269.502,-66.69
1269.517,-74.84
1269.532,-67.13
1269.547,-66.84
1269.563,-64.83
1269.578,-65.87
1269.593,-66.99
1269.608,-65.97
1269.623,-66.37
1269.637,-64.37
1269.652,-66.04
1269.667,-65.78
1269.682,-66.46
1269.698,-66.86
1269.713,-65.09
1269.728,-68.2
1269.743,-65.56
1269.758,-66.85
1269.772,-65.4
1269.787,-65.21
1269.802,-66.91
1269.818,-65.88
1269.833,-66.4
1269.848,-64.3
1269.863,-64.52
1269.878,-65.97
1269.893,-65.34
1269.908,-65.2
1269.922,-63.33
1269.938,-64.91
1269.953,-64.82
1269.968,-65.23
1269.983,-64.03
1269.998,-62.87
1270.013,-64.34
1270.028,-64.23
1270.043,-66.08
1270.058,-64.21
1270.073,-64.01
1270.088,-65.92
1270.103,-64.99
1270.118,-65.65
1270.133,-63.37
1270.148,-64.62
1270.163,-63.97
1270.178,-65.92
1270.193,-65.23
1270.208,-63.98
1270.223,-65.6
1270.238,-64.85
1270.253,-67.22
1270.268,-65.29
1270.283,-64.57
1270.298,-64.64
1270.313,-63.66
1270.328,-65.03
1270.343,-63.93
1270.358,-63.86
1270.373,-63.82
1270.388,-64.54
1270.403,-64.37
1270.418,-63.36
1270.433,-64.15
1270.448,-63.78
1270.463,-65.24
1270.478,-65.57
1270.493,-64.69
1270.508,-64.76
1270.523,-63.85
1270.538,-65.85
1270.553,-65.38
1270.568,-65.69
1270.583,-65.25
1270.598,-64.55
1270.613,-67.18
1270.628,-66.49
1270.643,-66.34
1270.658,-64.43
1270.673,-65.47
1270.688,-68.39
1270.703,-65.58
1270.718,-65.83
1270.733,-63.13
1270.748,-65.31
1270.763,-65.08
1270.778,-64.72
1270.793,-63.61
1270.808,-62.54
1270.823,-64.16
1270.838,-64.05
1270.853,-64.28
1270.868,-63.24
1270.883,-62.78
1270.898,-64.47
1270.913,-64.39
1270.928,-64.63
1270.943,-62.85
1270.958,-63.58
1270.973,-64.72
1270.988,-64.76
1271.003,-65.36
1271.018,-63.53
1271.033,-64.19
1271.048,-64.29
1271.063,-64.56
1271.078,-63.81
1271.093,-62.4
1271.108,-63.92
1271.123,-64.0
1271.138,-65.15
1271.153,-63.24
1271.168,-63.74
1271.183,-64.14
1271.198,-64.1
1271.213,-64.84
1271.228,-63.05
1271.243,-63.64
1271.258,-63.95
1271.273,-66.43
1271.288,-66.18
1271.303,-63.63
1271.318,-64.56
1271.333,-64.93
1271.348,-68.64
1271.363,-67.05
1271.378,-64.84
1271.393,-64.1
1271.408,-64.73
1271.423,-66.74
1271.438,-64.92
1271.453,-64.02
1271.468,-64.02
1271.483,-64.7
1271.498,-66.26
1271.513,-64.61
1271.528,-64.58
1271.543,-64.83
1271.558,-66.99
1271.573,-67.21
1271.588,-65.54
1271.603,-67.06
1271.618,-66.29
1271.633,-68.72
1271.648,-68.02
1271.663,-68.01
1271.678,-68.76
1271.693,-66.87
1271.708,-70.21
1271.723,-68.52
1271.738,-68.8
1271.753,-68.19
1271.768,-68.32
1271.783,-72.11
1271.798,-70.86
1271.813,-81.48
1271.828,-74.26
1271.843,-79.17
1271.858,-210.0
1271.873,-210.0
1271.888,-210.0
1271.903,-210.0
1271.918,-210.0
1271.933,-210.0
1271.948,-210.0
1271.963,-210.0
1271.978,-210.0
1271.993,-210.0
1272.008,-210.0
1272.023,-210.0
1272.038,-210.0
1272.053,-210.0
1272.068,-210.0
1272.083,-210.0
1272.098,-210.0
1272.113,-210.0
1272.128,-210.0
1272.143,-210.0
1272.158,-210.0
1272.173,-210.0
1272.188,-210.0
1272.203,-210.0
1272.218,-210.0
1272.233,-210.0
1272.248,-210.0
1272.263,-210.0
1272.278,-210.0
1272.293,-210.0
1272.308,-210.0
1272.323,-210.0
1272.338,-210.0
1272.353,-210.0
1272.368,-210.0
1272.383,-210.0
1272.398,-210.0
1272.413,-210.0
1272.428,-210.0
1272.443,-210.0
1272.458,-210.0
1272.473,-210.0
1272.488,-210.0
1272.503,-210.0
1272.518,-210.0
1272.533,-210.0
1272.548,-210.0
1272.563,-72.53
1272.578,-73.44
1272.593,-70.6
1272.608,-74.11
1272.623,-71.78
1272.638,-65.57
1272.653,-65.62
1272.668,-65.68
1272.683,-66.86
1272.698,-66.72
1272.713,-64.49
1272.728,-64.33
1272.743,-64.99
1272.758,-65.7
1272.773,-64.72
1272.788,-63.67
1272.803,-64.03
1272.818,-64.17
1272.833,-64.94
1272.848,-63.93
1272.863,-63.08
1272.878,-63.05
1272.893,-63.75
1272.908,-63.77
1272.923,-62.4
1272.938,-62.07
1272.953,-61.9
1272.968,-62.46
1272.983,-62.27
1272.998,-60.81
1273.013,-61.05
1273.028,-61.48
1273.043,-61.55
1273.058,-61.77
1273.073,-60.89
1273.088,-60.9
1273.103,-61.0
1273.118,-60.93
1273.133,-61.2
1273.148,-60.48
1273.163,-60.66
1273.178,-60.75
1273.193,-60.64
1273.208,-60.79
1273.223,-60.73
1273.238,-60.76
1273.253,-60.69
1273.268,-60.75
1273.283,-60.74
1273.298,-60.52
1273.313,-60.57
1273.328,-60.74
1273.343,-60.65
1273.358,-60.31
1273.373,-60.41
1273.388,-60.33
1273.403,-60.28
1273.418,-60.47
1273.433,-59.82
1273.448,-60.22
1273.463,-60.29
1273.478,-60.24
1273.493,-60.27
1273.508,-59.87
1273.523,-60.41
1273.538,-60.22
1273.553,-60.28
1273.568,-60.36
1273.583,-59.97
1273.598,-60.7
1273.613,-60.59
1273.628,-60.77
1273.643,-60.7
1273.658,-60.57
1273.673,-61.38
1273.688,-60.86
1273.703,-60.78
1273.718,-60.97
1273.733,-60.84
1273.748,-61.01
1273.763,-60.88
1273.778,-61.37
1273.793,-61.03
1273.808,-61.33
1273.823,-61.54
1273.838,-61.54
1273.853,-61.81
1273.868,-61.42
1273.883,-62.21
1273.898,-62.03
1273.913,-61.8
1273.928,-61.54
1273.943,-61.47
1273.958,-62.44
1273.973,-62.12
1273.988,-61.92
1274.003,-62.2
1274.018,-61.97
1274.033,-62.8
1274.048,-62.22
1274.063,-62.39
1274.078,-62.37
1274.093,-62.93
1274.108,-65.14
1274.123,-65.01
1274.138,-64.18
1274.153,-64.25
1274.168,-64.23
1274.183,-66.62
1274.198,-67.29
1274.213,-66.12
1274.228,-64.7
1274.243,-66.29
1274.258,-69.23
1274.273,-69.48
1274.288,-68.17
1274.303,-66.87
1274.318,-72.31
1274.333,-75.13
1274.348,-72.8
1274.363,-74.29
1274.378,-71.62
1274.393,-210.0
1274.408,-210.0
1274.423,-210.0
1274.438,-210.0
1274.453,-210.0
1274.468,-210.0
1274.483,-210.0
1274.498,-210.0
1274.513,-210.0
1274.528,-210.0
1274.543,-210.0
1274.558,-210.0
1274.573,-210.0
1274.588,-210.0
1274.603,-210.0
1274.618,-210.0
1274.633,-210.0
1274.648,-210.0
1274.663,-210.0
1274.678,-210.0
1274.693,-210.0
1274.708,-210.0
1274.723,-210.0
1274.738,-210.0
1274.753,-210.0
1274.768,-210.0
1274.783,-210.0
1274.798,-210.0
1274.813,-210.0
1274.828,-210.0
1274.843,-210.0
1274.858,-210.0
1274.873,-210.0
1274.888,-210.0
1274.903,-210.0
1274.918,-210.0
1274.933,-210.0
1274.948,-210.0
1274.963,-210.0
1274.978,-210.0
1274.993,-210.0
1275.008,-210.0
1275.023,-210.0
1275.038,-210.0
1275.053,-210.0
1275.068,-210.0
1275.083,-210.0
1275.098,-210.0
1275.113,-210.0
1275.128,-210.0
1275.143,-210.0
1275.158,-210.0
1275.173,-210.0
1275.188,-210.0
1275.203,-210.0
1275.218,-210.0
1275.233,-210.0
1275.248,-210.0
1275.263,-210.0
1275.278,-210.0
1275.293,-210.0
1275.308,-210.0
1275.323,-210.0
1275.338,-210.0
1275.353,-210.0
1275.368,-210.0
1275.383,-210.0
1275.398,-210.0
1275.413,-210.0
1275.428,-210.0
1275.443,-210.0
1275.458,-210.0
1275.473,-210.0
1275.488,-210.0
1275.503,-210.0
1275.518,-210.0
1275.533,-210.0
1275.548,-210.0
1275.563,-210.0
1275.578,-210.0
1275.593,-210.0
1275.608,-210.0
1275.623,-210.0
1275.638,-210.0
1275.653,-210.0
1275.668,-210.0
1275.683,-210.0
1275.698,-210.0
1275.713,-210.0
1275.728,-210.0
1275.743,-210.0
1275.758,-210.0
1275.773,-210.0
1275.788,-210.0
1275.803,-210.0
1275.818,-210.0
1275.833,-210.0
1275.848,-210.0
1275.863,-210.0
1275.878,-210.0
1275.893,-210.0
1275.908,-210.0
1275.923,-210.0
1275.938,-210.0
1275.953,-210.0
1275.968,-210.0
1275.983,-210.0
1275.998,-210.0
1276.013,-210.0
1276.028,-210.0
1276.043,-210.0
1276.058,-210.0
1276.073,-210.0
1276.088,-210.0
1276.103,-210.0
1276.118,-210.0
1276.133,-210.0
1276.148,-210.0
1276.163,-210.0
1276.178,-210.0
1276.193,-210.0
1276.208,-210.0
1276.223,-210.0
1276.238,-210.0
1276.253,-210.0
1276.268,-210.0
1276.283,-210.0
1276.298,-210.0
1276.313,-210.0
1276.328,-210.0
1276.343,-210.0
1276.358,-210.0
1276.373,-210.0
1276.388,-210.0
1276.403,-210.0
1276.418,-210.0
1276.433,-210.0
1276.448,-210.0
1276.463,-210.0
1276.478,-210.0
1276.493,-77.8
1276.508,-210.0
1276.523,-210.0
1276.538,-210.0
1276.553,-210.0
1276.568,-80.6
1276.583,-210.0
1276.598,-210.0
1276.613,-210.0
1276.628,-76.06
1276.643,-77.33
1276.658,-210.0
1276.673,-72.14
1276.688,-210.0
1276.703,-78.96
1276.718,-77.73
1276.733,-69.77
1276.748,-67.82
1276.763,-72.2
1276.778,-68.86
1276.793,-68.71
1276.808,-66.13
1276.823,-65.36
1276.838,-66.59
1276.853,-64.91
1276.868,-66.28
1276.883,-64.12
1276.898,-63.56
1276.913,-65.14
1276.928,-65.9
1276.943,-66.2
1276.958,-64.59
1276.973,-64.25
1276.988,-66.16
1277.003,-65.54
1277.018,-65.63
1277.033,-64.16
1277.048,-64.48
1277.063,-67.53
1277.078,-66.09
1277.093,-66.74
1277.108,-64.49
1277.123,-65.53
1277.138,-68.75
1277.153,-65.5
1277.168,-64.44
1277.183,-63.8
1277.198,-65.37
1277.214,-66.29
1277.228,-64.01
1277.243,-64.0
1277.258,-63.61
1277.273,-64.55
1277.288,-64.98
1277.303,-62.86
1277.318,-63.59
1277.333,-63.78
1277.349,-65.24
1277.364,-63.83
1277.378,-62.9
1277.393,-62.66
1277.408,-63.13
1277.423,-64.26
1277.438,-63.0
1277.453,-62.57
1277.469,-62.23
1277.484,-63.67
1277.499,-65.26
1277.514,-63.63
1277.528,-63.24
1277.543,-63.85
1277.558,-65.33
1277.573,-67.54
1277.589,-64.46
1277.604,-64.71
1277.619,-67.15
1277.634,-69.66
1277.649,-71.04
1277.663,-66.16
1277.678,-68.03
1277.693,-73.76
1277.708,-210.0
1277.724,-68.25
1277.739,-65.22
1277.754,-66.71
1277.769,-68.11
1277.784,-68.53
1277.799,-65.79
1277.813,-64.74
1277.828,-65.05
1277.844,-66.51
1277.859,-68.89
1277.874,-64.56
1277.889,-63.72
1277.904,-65.33
1277.919,-66.92
1277.934,-64.9
1277.948,-63.09
1277.964,-62.35
1277.979,-63.13
1277.994,-63.38
1278.009,-62.13
1278.024,-61.76
1278.039,-62.58
1278.054,-63.5
1278.069,-63.44
1278.084,-62.29
1278.099,-61.76
1278.114,-63.04
1278.129,-63.9
1278.144,-62.71
1278.159,-62.18
1278.174,-62.68
1278.189,-64.37
1278.204,-66.3
1278.219,-64.62
1278.234,-64.21
1278.249,-65.1
1278.264,-68.11
1278.279,-74.35
1278.294,-66.58
1278.309,-67.63
1278.324,-68.56
1278.339,-76.0
1278.354,-68.53
1278.369,-67.12
1278.384,-69.23
1278.399,-72.35
1278.414,-74.69
1278.429,-67.46
1278.444,-66.06
1278.459,-67.61
1278.474,-80.65
1278.489,-68.24
1278.504,-65.19
1278.519,-64.53
1278.534,-66.28
1278.549,-67.5
1278.564,-65.66
1278.579,-63.1
1278.594,-65.22
1278.609,-66.9
1278.624,-66.39
1278.639,-64.81
1278.654,-63.06
1278.669,-64.69
1278.684,-68.3
1278.699,-66.74
1278.714,-64.67
1278.729,-66.1
1278.744,-71.38
1278.759,-92.72
1278.774,-71.16
1278.789,-67.65
1278.804,-69.97
1278.819,-210.0
1278.834,-210.0
1278.849,-210.0
1278.864,-71.26
1278.879,-210.0
1278.894,-210.0
1278.909,-210.0
1278.924,-210.0
1278.939,-210.0
1278.954,-210.0
1278.969,-210.0
1278.984,-210.0
1278.999,-210.0
1279.014,-210.0
1279.029,-210.0
1279.044,-210.0
1279.059,-210.0
1279.074,-210.0
1279.089,-210.0
1279.104,-210.0
1279.119,-210.0
1279.134,-210.0
1279.149,-210.0
1279.164,-210.0
1279.179,-210.0
1279.194,-210.0
1279.209,-70.42
1279.224,-71.0
1279.239,-74.52
1279.254,-210.0
1279.269,-81.06
1279.284,-66.58
1279.299,-67.64
1279.314,-72.34
1279.329,-210.0
1279.344,-71.3
1279.359,-69.3
1279.374,-72.5
1279.389,-210.0
1279.404,-210.0
1279.419,-72.75
1279.434,-81.41
1279.449,-210.0
1279.464,-210.0
1279.479,-210.0
1279.494,-210.0
1279.509,-210.0
1279.524,-210.0
1279.539,-210.0
1279.554,-210.0
1279.569,-210.0
1279.584,-210.0
1279.599,-210.0
1279.614,-210.0
1279.629,-210.0
1279.644,-210.0
1279.659,-210.0
1279.674,-210.0
1279.689,-210.0
1279.704,-210.0
1279.719,-210.0
1279.734,-210.0
1279.749,-210.0
1279.764,-73.99
1279.779,-67.81
1279.794,-68.3
1279.809,-69.46
1279.824,-70.47
1279.839,-66.04
1279.854,-65.02
1279.869,-66.09
1279.884,-68.08
1279.899,-67.47
1279.914,-66.68
1279.929,-65.2
1279.944,-65.66
1279.959,-69.68
1279.974,-66.86
1279.989,-65.68
1280.004,-64.51
1280.019,-66.57
1280.034,-67.2
1280.049,-65.72
1280.064,-65.51
1280.079,-66.71
1280.094,-70.42
1280.109,-69.54
1280.124,-69.26
1280.139,-68.54
1280.154,-69.29
1280.169,-83.16
1280.184,-210.0
1280.199,-210.0
1280.214,-210.0
1280.229,-72.31
1280.244,-210.0
1280.259,-210.0
1280.274,-210.0
1280.289,-210.0
1280.304,-210.0
1280.319,-210.0
1280.334,-210.0
1280.349,-210.0
1280.364,-210.0
1280.379,-210.0
1280.394,-210.0
1280.409,-210.0
1280.424,-210.0
1280.439,-210.0
1280.454,-210.0
1280.469,-210.0
1280.484,-210.0
1280.499,-210.0
1280.514,-210.0
1280.529,-210.0
1280.544,-210.0
1280.559,-210.0
1280.574,-210.0
1280.589,-210.0
1280.604,-210.0
1280.619,-210.0
1280.634,-210.0
1280.649,-210.0
1280.664,-74.01
1280.679,-71.06
1280.694,-71.59
1280.709,-66.66
1280.724,-67.58
1280.739,-68.93
1280.754,-71.78
1280.769,-71.31
1280.784,-70.1
1280.799,-78.12
1280.814,-210.0
1280.829,-210.0
1280.844,-210.0
1280.859,-77.08
1280.874,-80.26
1280.889,-210.0
1280.904,-210.0
1280.919,-210.0
1280.934,-210.0
1280.949,-210.0
1280.964,-210.0
1280.979,-210.0
1280.994,-210.0
1281.009,-210.0
1281.024,-210.0
1281.039,-210.0
1281.054,-210.0
1281.069,-210.0
1281.084,-210.0
1281.099,-210.0
1281.114,-210.0
1281.129,-210.0
1281.144,-210.0
1281.159,-210.0
1281.174,-210.0
1281.189,-210.0
1281.204,-70.63
1281.219,-70.67
1281.234,-210.0
1281.249,-210.0
1281.264,-71.88
1281.279,-66.95
1281.294,-68.33
1281.309,-70.17
1281.324,-69.95
1281.339,-66.62
1281.354,-64.41
1281.369,-64.49
1281.384,-65.37
1281.399,-64.62
1281.414,-63.99
1281.429,-63.48
1281.444,-65.32
1281.459,-67.38
1281.474,-66.14
1281.489,-65.17
1281.504,-63.73
1281.519,-67.8
1281.534,-68.63
1281.549,-67.24
1281.564,-65.9
1281.579,-66.12
1281.594,-210.0
1281.609,-78.57
1281.624,-69.27
1281.639,-68.16
1281.654,-69.71
1281.669,-210.0
1281.684,-76.26
1281.699,-70.02
1281.714,-70.48
1281.729,-78.68
1281.744,-210.0
1281.759,-70.88
1281.774,-68.24
1281.789,-69.06
1281.804,-71.46
1281.819,-210.0
1281.834,-69.1
1281.849,-69.21
1281.864,-210.0
1281.879,-210.0
1281.894,-210.0
1281.909,-210.0
1281.924,-73.11
1281.939,-210.0
1281.954,-210.0
1281.969,-210.0
1281.984,-74.66
1281.999,-71.28
1282.014,-210.0
1282.029,-210.0
1282.044,-210.0
1282.059,-71.67
1282.074,-75.03
1282.089,-210.0
1282.104,-210.0
1282.119,-72.67
1282.134,-68.48
1282.149,-71.11
1282.164,-210.0
1282.179,-70.06
1282.194,-66.84
1282.209,-210.0
1282.224,-210.0
1282.239,-210.0
1282.254,-210.0
1282.269,-74.83
1282.284,-210.0
1282.299,-210.0
1282.314,-210.0
1282.329,-210.0
1282.344,-210.0
1282.359,-210.0
1282.374,-210.0
1282.389,-210.0
1282.404,-210.0
1282.419,-210.0
1282.434,-210.0
1282.449,-210.0
1282.464,-210.0
1282.479,-74.01
1282.494,-210.0
1282.509,-210.0
1282.524,-210.0
1282.539,-210.0
1282.554,-210.0
1282.569,-210.0
1282.584,-210.0
1282.599,-210.0
1282.614,-210.0
1282.629,-210.0
1282.644,-210.0
1282.659,-210.0
1282.674,-210.0
1282.689,-210.0
1282.704,-210.0
1282.719,-210.0
1282.734,-210.0
1282.749,-80.42
1282.764,-210.0
1282.779,-210.0
1282.794,-210.0
1282.809,-210.0
1282.824,-210.0
1282.839,-210.0
1282.854,-210.0
1282.869,-210.0
1282.884,-73.07
1282.899,-72.76
1282.914,-210.0
1282.929,-210.0
1282.944,-70.77
1282.959,-74.4
1282.974,-69.7
1282.989,-210.0
1283.004,-76.14
1283.019,-69.71
1283.034,-210.0
1283.049,-73.72
1283.064,-71.89
1283.079,-69.87
1283.094,-66.49
1283.109,-70.19
1283.124,-69.85
1283.139,-71.63
1283.154,-210.0
1283.169,-71.3
1283.184,-210.0
1283.199,-210.0
1283.214,-69.9
1283.229,-71.14
1283.244,-68.66
1283.259,-73.16
1283.274,-72.45
1283.289,-69.34
1283.304,-68.56
1283.319,-67.1
1283.334,-68.39
1283.349,-67.67
1283.364,-66.13
1283.379,-72.96
1283.394,-70.94
1283.409,-69.91
1283.424,-67.92
1283.439,-67.77
1283.454,-79.1
1283.469,-69.12
1283.484,-72.73
1283.499,-70.12
1283.514,-70.46
1283.529,-82.93
1283.544,-71.09
1283.559,-65.67
1283.574,-65.21
1283.589,-65.99
1283.604,-68.63
1283.619,-66.76
1283.634,-66.12
1283.649,-66.36
1283.664,-65.63
1283.679,-67.34
1283.694,-66.24
1283.709,-65.57
1283.724,-68.74
1283.739,-67.34
1283.754,-67.04
1283.769,-65.13
1283.784,-65.85
1283.799,-67.76
1283.814,-66.42
1283.829,-67.54
1283.844,-67.26
1283.859,-68.94
1283.874,-73.43
1283.889,-70.18
1283.904,-68.7
1283.919,-68.42
1283.934,-210.0
1283.949,-210.0
1283.964,-68.67
1283.979,-69.76
1283.994,-70.67
1284.009,-72.04
1284.024,-70.62
1284.039,-65.75
1284.054,-66.12
1284.069,-70.61
1284.084,-72.96
1284.099,-76.67
1284.114,-67.24
1284.129,-67.66
1284.144,-210.0
1284.159,-70.17
1284.174,-67.86
1284.189,-68.94
1284.204,-70.37
1284.219,-210.0
1284.234,-68.72
1284.249,-66.61
1284.264,-68.59
1284.279,-75.47
1284.294,-210.0
1284.309,-67.94
1284.324,-70.21
1284.339,-210.0
1284.354,-210.0
1284.369,-210.0
1284.384,-68.37
1284.399,-70.44
1284.414,-210.0
1284.429,-210.0
1284.444,-210.0
1284.459,-67.79
1284.474,-72.6
1284.489,-210.0
1284.504,-210.0
1284.519,-68.75
1284.534,-65.64
1284.549,-68.81
1284.564,-210.0
1284.579,-68.14
1284.594,-67.1
1284.609,-67.09
1284.624,-73.51
1284.639,-74.23
1284.654,-66.28
1284.669,-67.69
1284.684,-71.03
1284.699,-71.55
1284.714,-72.76
1284.729,-66.6
1284.744,-71.75
1284.759,-210.0
1284.774,-210.0
1284.789,-78.46
1284.804,-68.51
1284.819,-210.0
1284.834,-210.0
1284.849,-71.44
1284.864,-66.21
1284.879,-65.06
1284.894,-69.08
1284.909,-70.82
1284.924,-66.76
1284.939,-64.56
1284.954,-66.6
1284.969,-70.15
1284.984,-72.88
1284.999,-66.18
1285.014,-67.66
1285.029,-210.0
1285.044,-80.34
1285.059,-210.0
1285.074,-68.96
1285.089,-71.23
1285.104,-210.0
1285.119,-75.72
1285.134,-79.69
1285.149,-67.39
1285.164,-69.99
1285.179,-77.23
1285.194,-66.95
1285.209,-66.25
1285.224,-64.24
1285.24,-66.53
1285.255,-69.97
1285.269,-65.41
1285.284,-64.54
1285.299,-64.69
1285.314,-68.46
1285.329,-67.58
1285.344,-64.25
1285.359,-64.84
1285.375,-66.04
1285.39,-66.63
1285.404,-66.32
1285.419,-64.18
1285.434,-65.72
1285.449,-66.33
1285.464,-65.95
1285.479,-64.69
1285.495,-63.1
1285.51,-64.3
1285.525,-64.95
1285.54,-66.12
1285.554,-64.98
1285.569,-63.85
1285.584,-67.18
1285.599,-67.05
1285.615,-64.83
1285.63,-64.24
1285.645,-65.2
1285.66,-68.04
1285.675,-66.51
1285.689,-64.63
1285.704,-66.25
1285.719,-66.69
1285.734,-66.27
1285.75,-64.8
1285.765,-63.97
1285.78,-65.5
1285.795,-65.79
1285.81,-65.73
1285.825,-63.65
1285.839,-62.97
1285.854,-64.72
1285.87,-65.35
1285.885,-65.2
1285.9,-64.9
1285.915,-64.02
1285.93,-66.27
1285.945,-65.77
1285.96,-64.36
1285.974,-63.66
1285.99,-64.86
1286.005,-67.5
1286.02,-68.22
1286.035,-64.53
1286.05,-65.5
1286.065,-66.49
1286.08,-66.13
1286.095,-66.54
1286.11,-64.03
1286.125,-65.83
1286.14,-67.09
1286.155,-68.08
1286.17,-66.2
1286.185,-64.73
1286.2,-66.82
1286.215,-70.08
1286.23,-68.58
1286.245,-65.98
1286.26,-64.4
1286.275,-67.1
1286.29,-72.61
1286.305,-66.65
1286.32,-63.98
1286.335,-64.69
1286.35,-66.36
1286.365,-68.03
1286.38,-64.75
1286.395,-64.87
1286.41,-66.1
1286.425,-67.24
1286.44,-67.15
1286.455,-65.07
1286.47,-66.1
1286.485,-74.89
1286.5,-210.0
1286.515,-210.0
1286.53,-68.8
1286.545,-69.38
1286.56,-210.0
1286.575,-210.0
1286.59,-68.75
1286.605,-73.25
1286.62,-210.0
1286.635,-210.0
1286.65,-210.0
1286.665,-68.45
1286.68,-72.45
1286.695,-210.0
1286.71,-210.0
1286.725,-68.88
1286.74,-72.45
1286.755,-210.0
1286.77,-210.0
1286.785,-69.63
1286.8,-66.88
1286.815,-67.97
1286.83,-210.0
1286.845,-210.0
1286.86,-68.85
1286.875,-69.26
1286.89,-210.0
1286.905,-210.0
1286.92,-80.5
1286.935,-68.83
1286.95,-83.06
1286.965,-210.0
1286.98,-73.82
1286.995,-67.88
1287.01,-65.08
1287.025,-65.31
1287.04,-66.54
1287.055,-65.29
1287.07,-64.45
1287.085,-64.81
1287.1,-65.78
1287.115,-66.41
1287.13,-64.99
1287.145,-64.77
1287.16,-66.47
1287.175,-68.93
1287.19,-69.77
1287.205,-67.27
1287.22,-66.46
1287.235,-68.39
1287.25,-66.81
1287.265,-68.34
1287.28,-67.34
1287.295,-66.86
1287.31,-67.36
1287.325,-67.34
1287.34,-67.78
1287.355,-70.08
1287.37,-69.01
1287.385,-68.71
1287.4,-68.23
1287.415,-67.72
1287.43,-68.57
1287.445,-64.82
1287.46,-65.24
1287.475,-65.45
1287.49,-64.45
1287.505,-64.99
1287.52,-63.36
1287.535,-64.69
1287.55,-64.96
1287.565,-64.9
1287.58,-64.91
1287.595,-65.63
1287.61,-64.91
1287.625,-66.77
1287.64,-64.19
1287.655,-63.88
1287.67,-63.72
1287.685,-64.18
1287.7,-64.6
1287.715,-62.6
1287.73,-63.21
1287.745,-63.09
1287.76,-63.19
1287.775,-63.54
1287.79,-63.12
1287.805,-63.77
1287.82,-66.14
1287.835,-65.42
1287.85,-64.71
1287.865,-64.79
1287.88,-65.27
1287.895,-67.06
1287.91,-64.55
1287.925,-65.01
1287.94,-65.13
1287.955,-65.52
1287.97,-65.05
1287.985,-65.23
1288.0,-65.37
1288.015,-69.53
1288.03,-69.6
1288.045,-67.04
1288.06,-66.6
1288.075,-66.88
1288.09,-71.64
1288.105,-66.06
1288.12,-66.42
1288.135,-66.12
1288.15,-67.42
1288.165,-68.13
1288.18,-64.34
1288.195,-64.14
1288.21,-64.68
1288.225,-65.28
1288.24,-65.03
1288.255,-65.14
1288.27,-65.38
1288.285,-68.14
1288.3,-68.04
1288.315,-67.12
1288.33,-66.87
1288.345,-66.41
1288.36,-66.94
1288.375,-64.41
1288.39,-64.15
1288.405,-64.35
1288.42,-65.55
1288.435,-65.26
1288.45,-65.23
1288.465,-65.81
1288.48,-69.04
1288.495,-69.31
1288.51,-68.11
1288.525,-68.21
1288.54,-67.32
1288.555,-80.71
1288.57,-68.46
1288.585,-67.51
1288.6,-66.17
1288.615,-67.94
1288.63,-68.13
1288.645,-66.42
1288.66,-66.09
1288.675,-66.52
1288.69,-65.73
1288.705,-65.68
1288.72,-66.4
1288.735,-66.51
1288.75,-69.13
1288.765,-67.63
1288.78,-68.31
1288.795,-68.91
1288.81,-67.83
1288.825,-68.72
1288.84,-65.77
1288.855,-64.72
1288.87,-65.28
1288.885,-64.95
1288.9,-65.04
1288.915,-64.99
1288.93,-64.36
1288.945,-66.0
1288.96,-64.78
1288.975,-65.15
1288.99,-65.09
1289.005,-65.03
1289.02,-64.74
1289.035,-64.28
1289.05,-63.38
1289.065,-63.89
1289.08,-63.75
1289.095,-63.71
1289.11,-64.28
1289.125,-63.58
1289.14,-65.03
1289.155,-64.7
1289.17,-64.75
1289.185,-65.02
1289.2,-64.72
1289.215,-67.25
1289.23,-66.2
1289.245,-66.84
1289.26,-65.85
1289.275,-65.93
1289.29,-65.38
1289.305,-64.85
1289.32,-63.72
1289.335,-64.4
1289.35,-64.17
1289.365,-64.09
1289.38,-64.33
1289.395,-64.17
1289.41,-66.0
1289.425,-66.06
1289.44,-66.1
1289.455,-67.56
1289.47,-66.8
1289.485,-65.82
1289.5,-67.31
1289.515,-65.59
1289.53,-66.45
1289.545,-66.49
1289.56,-64.22
1289.575,-66.24
1289.59,-64.92
1289.605,-65.46
1289.62,-64.3
1289.635,-62.77
1289.65,-63.99
1289.665,-64.58
1289.68,-64.92
1289.695,-66.25
1289.71,-64.75
1289.725,-66.8
1289.74,-67.03
1289.755,-65.52
1289.77,-66.22
1289.785,-66.77
1289.8,-66.12
1289.815,-67.31
1289.83,-65.49
1289.845,-66.21
1289.86,-68.08
1289.875,-66.89
1289.89,-67.32
1289.905,-65.2
1289.92,-65.78
1289.935,-67.05
1289.95,-64.88
1289.965,-65.83
1289.98,-65.93
1289.995,-68.57
1290.01,-69.42
1290.025,-66.54
1290.04,-65.75
1290.055,-68.72
1290.07,-68.17
1290.085,-70.23
1290.1,-65.85
1290.115,-65.7
1290.13,-67.99
1290.145,-66.37
1290.16,-66.53
1290.175,-65.53
1290.19,-66.02
1290.205,-68.57
1290.22,-65.57
1290.235,-65.46
1290.25,-64.7
1290.265,-64.62
1290.28,-66.3
1290.295,-65.07
1290.31,-64.25
1290.325,-66.46
1290.34,-65.74
1290.355,-66.35
1290.37,-64.65
1290.385,-64.5
1290.4,-66.97
1290.415,-65.47
1290.43,-64.27
1290.445,-63.69
1290.46,-64.31
1290.475,-66.98
1290.49,-66.93
1290.505,-63.64
1290.52,-64.11
1290.535,-65.82
1290.55,-65.33
1290.565,-66.88
1290.58,-64.24
1290.595,-65.42
1290.61,-66.44
1290.625,-66.15
1290.64,-67.88
1290.655,-69.22
1290.67,-69.31
1290.685,-71.07
1290.7,-67.67
1290.715,-70.26
1290.73,-69.32
1290.745,-67.28
1290.76,-67.08
1290.775,-65.99
1290.79,-65.18
1290.805,-66.46
1290.82,-65.93
1290.835,-66.21
1290.85,-67.26
1290.865,-66.05
1290.88,-68.26
1290.895,-67.62
1290.91,-67.75
1290.925,-70.49
1290.94,-68.07
1290.955,-69.53
1290.97,-71.21
1290.985,-67.73
1291.0,-67.93
1291.015,-66.14
1291.03,-67.04
1291.045,-69.98
1291.06,-68.08
1291.075,-67.16
1291.09,-66.77
1291.105,-69.21
1291.12,-73.3
1291.135,-69.7
1291.15,-68.0
1291.165,-69.62
1291.18,-71.34
1291.195,-70.69
1291.21,-67.74
1291.225,-67.67
1291.24,-69.82
1291.255,-70.63
1291.27,-68.14
1291.285,-66.0
1291.3,-65.56
1291.315,-67.01
1291.33,-66.97
1291.345,-65.13
1291.36,-65.8
1291.375,-70.16
1291.39,-73.69
1291.405,-68.02
1291.42,-67.43
1291.435,-70.43
1291.45,-72.78
1291.465,-67.84
1291.48,-64.36
1291.495,-63.45
1291.51,-64.93
1291.525,-67.43
1291.54,-63.78
1291.555,-63.76
1291.57,-64.73
1291.585,-66.35
1291.6,-65.42
1291.615,-64.03
1291.63,-64.35
1291.645,-66.36
1291.66,-64.52
1291.675,-63.46
1291.69,-63.67
1291.705,-64.42
1291.72,-65.94
1291.735,-64.05
1291.75,-63.84
1291.765,-65.46
1291.78,-68.54
1291.795,-65.83
1291.81,-63.84
1291.825,-63.82
1291.84,-66.2
1291.855,-64.64
1291.87,-64.02
1291.885,-62.85
1291.9,-64.07
1291.915,-65.9
1291.93,-64.81
1291.945,-64.18
1291.96,-64.46
1291.975,-66.28
1291.99,-66.25
1292.005,-63.69
1292.02,-63.54
1292.035,-65.31
1292.05,-65.3
1292.065,-63.44
1292.08,-63.58
1292.095,-65.35
1292.11,-66.31
1292.125,-65.64
1292.14,-63.73
1292.155,-64.38
1292.17,-66.7
1292.185,-65.13
1292.2,-63.81
1292.215,-64.29
1292.23,-64.8
1292.245,-66.94
1292.26,-63.96
1292.275,-63.9
1292.29,-66.01
1292.305,-69.37
1292.32,-67.27
1292.335,-64.35
1292.35,-65.13
1292.365,-69.53
1292.38,-67.66
1292.395,-65.4
1292.41,-65.5
1292.425,-68.38
1292.44,-72.81
1292.455,-67.56
1292.47,-65.78
1292.485,-67.07
1292.5,-78.24
1292.515,-72.6
1292.53,-66.5
1292.545,-66.32
1292.56,-68.99
1292.575,-68.49
1292.59,-66.27
1292.605,-65.08
1292.62,-66.69
1292.635,-69.51
1292.65,-68.18
1292.665,-66.12
1292.68,-66.25
1292.695,-68.13
1292.71,-68.17
1292.725,-65.31
1292.74,-64.59
1292.755,-65.07
1292.77,-66.61
1292.785,-64.04
1292.8,-64.13
1292.815,-65.37
1292.83,-67.59
1292.845,-67.72
1292.86,-65.7
1292.875,-65.25
1292.89,-68.31
1292.905,-68.76
1292.92,-66.19
1292.935,-65.28
1292.95,-65.22
1292.965,-68.26
1292.98,-65.84
1292.995,-65.11
1293.01,-65.36
1293.025,-70.14
1293.04,-67.09
1293.055,-66.32
1293.07,-65.87
1293.085,-66.75
1293.1,-66.49
1293.115,-65.02
1293.13,-63.34
1293.145,-64.81
1293.16,-65.38
1293.175,-65.33
1293.19,-65.32
1293.205,-65.37
1293.22,-64.62
1293.235,-67.6
1293.25,-65.14
1293.266,-66.02
1293.281,-65.96
1293.295,-65.15
1293.31,-65.92
1293.325,-66.03
1293.34,-66.16
1293.355,-69.61
1293.37,-65.93
1293.385,-66.43
1293.401,-66.61
1293.416,-65.75
1293.43,-66.18
1293.445,-64.04
1293.46,-63.37
1293.475,-63.97
1293.49,-63.72
1293.505,-63.54
1293.521,-63.9
1293.536,-63.32
1293.551,-64.9
1293.566,-66.45
1293.58,-67.1
1293.595,-66.21
1293.61,-66.22
1293.625,-68.12
1293.641,-69.67
1293.656,-66.24
1293.671,-66.04
1293.686,-67.64
1293.701,-66.76
1293.715,-66.77
1293.73,-65.33
1293.745,-66.46
1293.76,-72.1
1293.776,-66.13
1293.791,-67.22
1293.806,-67.62
1293.821,-67.85
1293.836,-71.67
1293.851,-65.35
1293.865,-65.22
1293.88,-70.5
1293.896,-68.86
1293.911,-69.52
1293.926,-68.56
1293.941,-67.59
1293.956,-71.15
1293.971,-70.45
1293.986,-66.53
1294.001,-66.06
1294.016,-66.06
1294.031,-65.58
1294.046,-65.86
1294.061,-64.18
1294.076,-65.29
1294.091,-66.08
1294.106,-66.85
1294.121,-67.32
1294.136,-68.38
1294.151,-67.34
1294.166,-77.85
1294.181,-66.98
1294.196,-66.42
1294.211,-66.25
1294.226,-68.38
1294.241,-68.35
1294.256,-66.28
1294.271,-65.09
1294.286,-70.16
1294.301,-73.9
1294.316,-68.16
1294.331,-66.72
1294.346,-67.62
1294.361,-69.41
1294.376,-69.59
1294.391,-65.19
1294.406,-64.87
1294.421,-67.34
1294.436,-68.07
1294.451,-66.3
1294.466,-66.71
1294.481,-70.06
1294.496,-78.31
1294.511,-79.38
1294.526,-69.74
1294.541,-75.74
1294.556,-210.0
1294.571,-76.42
1294.586,-67.1
1294.601,-67.9
1294.616,-71.99
1294.631,-73.15
1294.646,-67.32
1294.661,-65.95
1294.676,-68.2
1294.691,-74.14
1294.706,-68.5
1294.721,-66.74
1294.736,-67.39
1294.751,-71.31
1294.766,-68.66
1294.781,-67.32
1294.796,-66.82
1294.811,-77.66
1294.826,-210.0
1294.841,-83.03
1294.856,-78.54
1294.871,-210.0
1294.886,-210.0
1294.901,-210.0
1294.916,-69.11
1294.931,-68.82
1294.946,-68.8
1294.961,-75.26
1294.976,-68.7
1294.991,-67.07
1295.006,-71.54
1295.021,-210.0
1295.036,-210.0
1295.051,-210.0
1295.066,-210.0
1295.081,-210.0
1295.096,-210.0
1295.111,-210.0
1295.126,-70.69
1295.141,-72.76
1295.156,-210.0
1295.171,-88.3
1295.186,-85.86
1295.201,-73.21
1295.216,-210.0
1295.231,-210.0
1295.246,-210.0
1295.261,-77.83
1295.276,-210.0
1295.291,-210.0
1295.306,-72.27
1295.321,-67.17
1295.336,-66.68
1295.351,-70.44
1295.366,-69.91
1295.381,-67.12
1295.396,-67.76
1295.411,-210.0
1295.426,-210.0
1295.441,-71.14
1295.456,-69.56
1295.471,-76.32
1295.486,-210.0
1295.501,-210.0
1295.516,-68.26
1295.531,-77.98
1295.546,-210.0
1295.561,-210.0
1295.576,-210.0
1295.591,-210.0
1295.606,-210.0
1295.621,-210.0
1295.636,-83.3
1295.651,-210.0
1295.666,-210.0
1295.681,-210.0
1295.696,-210.0
1295.711,-210.0
1295.726,-210.0
1295.741,-210.0
1295.756,-210.0
1295.771,-210.0
1295.786,-210.0
1295.801,-210.0
1295.816,-210.0
1295.831,-77.07
1295.846,-71.52
1295.861,-210.0
1295.876,-210.0
1295.891,-70.26
1295.906,-66.71
1295.921,-68.59
1295.936,-210.0
1295.951,-210.0
1295.966,-71.5
1295.981,-71.7
1295.996,-210.0
1296.011,-210.0
1296.026,-210.0
1296.041,-210.0
1296.056,-210.0
1296.071,-210.0
1296.086,-210.0
1296.101,-72.27
1296.116,-210.0
1296.131,-210.0
1296.146,-210.0
1296.161,-210.0
1296.176,-210.0
1296.191,-210.0
1296.206,-210.0
1296.221,-210.0
1296.236,-210.0
1296.251,-210.0
1296.266,-210.0
1296.281,-210.0
1296.296,-210.0
1296.311,-210.0
1296.326,-210.0
1296.341,-210.0
1296.356,-210.0
1296.371,-210.0
1296.386,-210.0
1296.401,-210.0
1296.416,-210.0
1296.431,-210.0
1296.446,-210.0
1296.461,-210.0
1296.476,-210.0
1296.491,-210.0
1296.506,-210.0
1296.521,-210.0
1296.536,-210.0
1296.551,-210.0
1296.566,-83.68
1296.581,-79.78
1296.596,-210.0
1296.611,-72.91
1296.626,-68.54
1296.641,-210.0
1296.656,-210.0
1296.671,-95.7
1296.686,-73.58
1296.701,-210.0
1296.716,-210.0
1296.731,-210.0
1296.746,-73.29
1296.761,-210.0
1296.776,-210.0
1296.791,-210.0
1296.806,-210.0
1296.821,-210.0
1296.836,-210.0
1296.851,-210.0
1296.866,-210.0
1296.881,-210.0
1296.896,-210.0
1296.911,-210.0
1296.926,-210.0
1296.941,-210.0
1296.956,-210.0
1296.971,-210.0
1296.986,-210.0
1297.001,-210.0
1297.016,-73.92
1297.031,-210.0
1297.046,-210.0
1297.061,-210.0
1297.076,-69.64
1297.091,-83.1
1297.106,-210.0
1297.121,-75.97
1297.136,-68.61
1297.151,-69.66
1297.166,-68.49
1297.181,-69.35
1297.196,-65.22
1297.211,-64.96
1297.226,-68.29
1297.241,-66.2
1297.256,-66.44
1297.271,-66.33
1297.286,-67.4
1297.301,-73.6
1297.316,-68.65
1297.331,-65.18
1297.346,-67.97
1297.361,-69.28
1297.376,-69.21
1297.391,-66.84
1297.406,-67.0
1297.421,-71.39
1297.436,-69.85
1297.451,-65.44
1297.466,-67.92
1297.481,-69.74
1297.496,-68.56
1297.511,-66.82
1297.526,-64.29
1297.541,-65.61
1297.556,-70.09
1297.571,-65.88
1297.586,-65.54
1297.601,-66.57
1297.616,-68.36
1297.631,-68.87
1297.646,-64.43
1297.661,-64.36
1297.676,-67.35
1297.691,-65.79
1297.706,-64.82
1297.721,-65.07
1297.736,-65.6
1297.751,-67.43
1297.766,-65.13
1297.781,-63.64
1297.796,-66.14
1297.811,-67.1
1297.826,-63.94
1297.841,-64.56
1297.856,-64.75
1297.871,-66.92
1297.886,-67.29
1297.901,-64.97
1297.916,-64.97
1297.931,-67.03
1297.946,-66.52
1297.961,-67.8
1297.976,-66.77
1297.991,-67.47
1298.006,-72.54
1298.021,-69.43
1298.036,-65.81
1298.051,-70.22
1298.066,-68.61
1298.081,-68.39
1298.096,-66.64
1298.111,-64.7
1298.126,-67.78
1298.141,-68.07
1298.156,-64.76
1298.171,-66.09
1298.186,-67.43
1298.201,-67.44
1298.216,-67.62
1298.231,-64.73
1298.246,-67.0
1298.261,-68.8
1298.276,-65.31
1298.291,-63.92
1298.306,-64.11
1298.321,-65.0
1298.336,-68.64
1298.351,-65.77
1298.366,-65.01
1298.381,-67.57
1298.396,-68.34
1298.411,-66.41
1298.426,-64.51
1298.441,-67.36
1298.456,-76.48
1298.471,-67.76
1298.486,-64.71
1298.501,-65.98
1298.516,-69.4
1298.531,-68.53
1298.546,-66.89
1298.561,-64.6
1298.576,-66.29
1298.591,-72.18
1298.606,-67.25
1298.621,-65.63
1298.636,-67.11
1298.651,-210.0
1298.666,-72.99
1298.681,-67.32
1298.696,-67.01
1298.711,-70.77
1298.726,-68.84
1298.741,-65.65
1298.756,-64.56
1298.771,-66.67
1298.786,-66.57
1298.801,-65.68
1298.816,-64.03
1298.831,-65.31
1298.846,-67.15
1298.861,-65.22
1298.876,-63.25
1298.891,-63.54
1298.906,-65.78
1298.921,-68.03
1298.936,-64.84
1298.951,-64.66
1298.966,-66.79
1298.981,-68.58
1298.996,-65.59
1299.011,-63.42
1299.026,-63.54
1299.041,-64.86
1299.056,-64.13
1299.071,-63.14
1299.086,-63.64
1299.101,-65.98
1299.116,-66.81
1299.131,-63.75
1299.146,-63.63
1299.161,-64.98
1299.176,-66.24
1299.191,-64.05
1299.206,-64.13
1299.221,-65.87
1299.236,-70.36
1299.251,-65.93
1299.266,-64.93
1299.281,-65.01
1299.296,-70.15
1299.311,-67.35
1299.326,-66.01
1299.341,-65.03
1299.356,-68.03
1299.371,-70.25
1299.386,-67.04
1299.401,-64.68
1299.416,-66.1
1299.431,-70.88
1299.446,-65.98
1299.461,-64.05
1299.476,-66.29
1299.491,-70.06
1299.506,-74.56
1299.521,-67.01
1299.536,-68.49
1299.551,-210.0
1299.566,-210.0
1299.581,-210.0
1299.596,-70.9
1299.611,-210.0
1299.626,-210.0
1299.641,-210.0
1299.656,-70.73
1299.671,-210.0
1299.686,-210.0
1299.701,-210.0
1299.716,-210.0
1299.731,-210.0
1299.746,-210.0
1299.761,-210.0
1299.776,-210.0
1299.791,-210.0
1299.806,-210.0
1299.821,-210.0
1299.836,-210.0
1299.851,-210.0
1299.866,-210.0
1299.881,-210.0
1299.896,-210.0
1299.911,-210.0
1299.926,-210.0
1299.941,-210.0
1299.956,-210.0
1299.971,-210.0
1299.986,-210.0
1300.001,-210.0
1300.016,-210.0
1300.031,-210.0
1300.046,-210.0
1300.061,-210.0
1300.076,-210.0
1300.091,-210.0
1300.106,-210.0
1300.121,-210.0
1300.136,-210.0
1300.151,-210.0
1300.166,-210.0
1300.181,-210.0
1300.196,-210.0
1300.211,-210.0
1300.226,-210.0
1300.241,-210.0
1300.256,-210.0
1300.271,-210.0
1300.286,-210.0
1300.301,-210.0
1300.316,-210.0
1300.331,-210.0
1300.346,-210.0
1300.361,-210.0
1300.376,-210.0
1300.391,-210.0
1300.406,-210.0
1300.421,-210.0
1300.436,-210.0
1300.451,-210.0
1300.466,-210.0
1300.481,-210.0
1300.496,-210.0
1300.511,-210.0
1300.526,-210.0
1300.541,-210.0
1300.556,-210.0
1300.571,-210.0
1300.586,-210.0
1300.601,-210.0
1300.616,-210.0
1300.631,-210.0
1300.646,-210.0
1300.661,-210.0
1300.676,-210.0
1300.691,-210.0
1300.706,-210.0
1300.721,-210.0
1300.736,-210.0
1300.751,-210.0
1300.766,-210.0
1300.781,-210.0
1300.796,-210.0
1300.811,-210.0
1300.826,-210.0
1300.841,-210.0
1300.856,-210.0
1300.871,-210.0
1300.886,-210.0
1300.901,-210.0
1300.916,-210.0
1300.931,-210.0
1300.946,-74.36
1300.961,-210.0
1300.976,-210.0
1300.991,-82.04
1301.006,-71.37
1301.021,-69.78
1301.036,-210.0
1301.051,-210.0
1301.066,-71.74
1301.081,-210.0
1301.096,-210.0
1301.111,-210.0
1301.126,-78.45
1301.141,-210.0
1301.156,-210.0
1301.171,-210.0
1301.186,-210.0
1301.201,-210.0
1301.216,-210.0
1301.231,-210.0
1301.246,-210.0
1301.261,-210.0
1301.276,-210.0
1301.292,-210.0
1301.307,-210.0
1301.321,-81.67
1301.336,-210.0
1301.351,-210.0
1301.366,-210.0
1301.381,-210.0
1301.396,-210.0
1301.411,-210.0
1301.427,-210.0
1301.442,-210.0
1301.457,-210.0
1301.471,-210.0
1301.486,-210.0
1301.501,-210.0
1301.516,-210.0
1301.531,-210.0
1301.547,-210.0
1301.562,-210.0
1301.577,-210.0
1301.592,-210.0
1301.606,-210.0
1301.621,-210.0
1301.636,-210.0
1301.651,-210.0
1301.667,-210.0
1301.682,-210.0
1301.697,-210.0
1301.712,-210.0
1301.727,-210.0
1301.742,-210.0
1301.756,-210.0
1301.771,-70.06
1301.786,-73.83
1301.802,-210.0
1301.817,-210.0
1301.832,-79.61
1301.847,-75.55
1301.862,-210.0
1301.877,-210.0
1301.891,-210.0
1301.906,-210.0
1301.922,-210.0
1301.937,-210.0
1301.952,-210.0
1301.967,-210.0
1301.982,-210.0
1301.997,-210.0
1302.012,-210.0
1302.027,-210.0
1302.042,-210.0
1302.057,-210.0
1302.072,-210.0
1302.087,-210.0
1302.102,-210.0
1302.117,-210.0
1302.132,-210.0
1302.147,-210.0
1302.162,-210.0
1302.177,-210.0
1302.192,-210.0
1302.207,-210.0
1302.222,-210.0
1302.237,-210.0
1302.252,-210.0
1302.267,-210.0
1302.282,-210.0
1302.297,-210.0
1302.312,-210.0
1302.327,-210.0
1302.342,-210.0
1302.357,-210.0
1302.372,-210.0
1302.387,-210.0
1302.402,-210.0
1302.417,-210.0
1302.432,-210.0
1302.447,-210.0
1302.462,-210.0
1302.477,-210.0
1302.492,-210.0
1302.507,-210.0
1302.522,-210.0
1302.537,-210.0
1302.552,-210.0
1302.567,-210.0
1302.582,-210.0
1302.597,-210.0
1302.612,-210.0
1302.627,-210.0
1302.642,-210.0
1302.657,-210.0
1302.672,-210.0
1302.687,-210.0
1302.702,-210.0
1302.717,-210.0
1302.732,-210.0
1302.747,-210.0
1302.762,-210.0
1302.777,-210.0
1302.792,-210.0
1302.807,-210.0
1302.822,-210.0
1302.837,-210.0
1302.852,-210.0
1302.867,-210.0
1302.882,-210.0
1302.897,-210.0
1302.912,-75.15
1302.927,-210.0
1302.942,-210.0
1302.957,-210.0
1302.972,-84.6
1302.987,-86.1
1303.002,-69.85
1303.017,-72.0
1303.032,-70.3
1303.047,-69.0
1303.062,-72.07
1303.077,-69.88
1303.092,-69.03
1303.107,-67.54
1303.122,-65.72
1303.137,-64.8
1303.152,-64.89
1303.167,-65.3
1303.182,-65.34
1303.197,-65.87
1303.212,-65.56
1303.227,-65.23
1303.242,-65.63
1303.257,-63.96
1303.272,-64.53
1303.287,-64.18
1303.302,-63.42
1303.317,-64.37
1303.332,-64.28
1303.347,-64.19
1303.362,-63.98
1303.377,-63.66
1303.392,-62.6
1303.407,-62.91
1303.422,-62.56
1303.437,-62.3
1303.452,-63.13
1303.467,-62.59
1303.482,-61.99
1303.497,-62.88
1303.512,-62.26
1303.527,-62.09
1303.542,-62.91
1303.557,-61.92
1303.572,-62.19
1303.587,-62.67
1303.602,-61.76
1303.617,-61.77
1303.632,-62.87
1303.647,-62.52
1303.662,-63.48
1303.677,-63.7
1303.692,-63.47
1303.707,-64.72
1303.722,-64.02
1303.737,-62.95
1303.752,-63.93
1303.767,-63.48
1303.782,-63.38
1303.797,-63.9
1303.812,-63.6
1303.827,-63.12
1303.842,-63.2
1303.857,-62.44
1303.872,-62.9
1303.887,-63.68
1303.902,-63.46
1303.917,-63.81
1303.932,-63.78
1303.947,-63.89
1303.962,-64.2
1303.977,-64.53
1303.992,-64.88
1304.007,-65.6
1304.022,-65.31
1304.037,-66.38
1304.052,-66.25
1304.067,-65.82
1304.082,-65.6
1304.097,-66.33
1304.112,-67.28
1304.127,-65.66
1304.142,-65.82
1304.157,-66.47
1304.172,-67.43
1304.187,-66.56
1304.202,-67.24
1304.217,-66.66
1304.232,-66.77
1304.247,-67.32
1304.262,-67.07
1304.277,-65.57
1304.292,-68.79
1304.307,-69.99
1304.322,-68.86
1304.337,-66.67
1304.352,-66.78
1304.367,-68.44
1304.382,-66.58
1304.397,-66.22
1304.412,-66.06
1304.427,-69.1
1304.442,-66.38
1304.457,-65.4
1304.472,-66.12
1304.487,-67.63
1304.502,-67.19
1304.517,-66.28
1304.532,-66.32
1304.547,-66.97
1304.562,-71.71
1304.577,-66.79
1304.592,-64.98
1304.607,-66.41
1304.622,-66.9
1304.637,-66.35
1304.652,-65.4
1304.667,-65.14
1304.682,-65.0
1304.697,-65.61
1304.712,-63.27
1304.727,-64.06
1304.742,-66.4
1304.757,-65.55
1304.772,-65.51
1304.787,-65.17
1304.802,-65.91
1304.817,-65.46
1304.832,-65.04
1304.847,-65.02
1304.862,-68.89
1304.877,-68.21
1304.892,-65.02
1304.907,-65.52
1304.922,-65.47
1304.937,-65.18
1304.952,-64.67
1304.967,-63.96
1304.982,-64.02
1304.997,-64.24
1305.012,-63.64
1305.027,-62.98
1305.042,-63.5
1305.057,-64.36
1305.072,-64.31
1305.087,-64.6
1305.102,-64.43
1305.117,-63.5
1305.132,-64.61
1305.147,-64.43
1305.162,-64.05
1305.177,-65.65
1305.192,-65.13
1305.207,-63.27
1305.222,-63.57
1305.237,-63.95
1305.252,-63.81
1305.267,-63.94
1305.282,-64.26
1305.297,-63.38
1305.312,-64.19
1305.327,-63.07
1305.342,-62.83
1305.357,-63.63
1305.372,-62.7
1305.387,-63.2
1305.402,-63.32
1305.417,-63.5
1305.432,-63.23
1305.447,-64.71
1305.462,-63.48
1305.477,-63.64
1305.492,-65.08
1305.507,-63.75
1305.522,-63.73
1305.537,-63.97
1305.552,-63.63
1305.567,-63.65
1305.582,-63.38
1305.597,-63.24
1305.612,-64.41
1305.627,-64.6
1305.642,-64.23
1305.657,-63.77
1305.672,-63.82
1305.687,-64.15
1305.702,-63.86
1305.717,-63.98
1305.732,-64.2
1305.747,-64.05
1305.762,-63.03
1305.777,-63.16
1305.792,-63.04
1305.807,-63.42
1305.822,-63.4
1305.837,-63.08
1305.852,-63.51
1305.867,-63.51
1305.882,-63.39
1305.897,-63.24
1305.912,-63.54
1305.927,-64.25
1305.942,-65.52
1305.957,-64.49
1305.972,-64.53
1305.987,-64.89
1306.002,-64.88
1306.017,-63.41
1306.032,-63.67
1306.047,-63.5
1306.062,-63.31
1306.077,-63.05
1306.092,-62.63
1306.107,-62.77
1306.122,-64.04
1306.137,-63.25
1306.152,-63.0
1306.167,-63.53
1306.182,-63.01
1306.197,-63.54
1306.212,-63.79
1306.227,-63.8
1306.242,-64.82
1306.257,-64.63
1306.272,-62.83
1306.287,-62.73
1306.302,-63.18
1306.317,-63.52
1306.332,-63.57
1306.347,-63.39
1306.362,-63.17
1306.377,-64.86
1306.392,-63.46
1306.407,-62.96
1306.422,-63.72
1306.437,-63.35
1306.452,-63.52
1306.467,-63.64
1306.482,-63.53
1306.497,-63.06
1306.512,-64.11
1306.527,-63.11
1306.542,-63.26
1306.557,-65.54
1306.572,-63.85
1306.587,-64.55
1306.602,-65.27
1306.617,-64.73
1306.632,-65.62
1306.647,-63.96
1306.662,-63.39
1306.677,-64.78
1306.692,-66.03
1306.707,-64.11
1306.722,-64.81
1306.737,-64.79
1306.752,-64.61
1306.767,-66.14
1306.782,-64.34
1306.797,-64.26
1306.812,-65.9
1306.827,-65.1
1306.842,-64.29
1306.857,-64.82
1306.872,-63.3
1306.887,-63.43
1306.902,-63.97
1306.917,-63.32
1306.932,-63.7
1306.947,-63.7
1306.962,-63.3
1306.977,-63.47
1306.992,-64.54
1307.007,-64.7
1307.022,-66.28
1307.037,-65.98
1307.052,-65.95
1307.067,-66.79
1307.082,-66.83
1307.097,-65.62
1307.112,-66.53
1307.127,-67.31
1307.142,-65.69
1307.157,-65.09
1307.172,-64.73
1307.187,-65.39
1307.202,-64.89
1307.217,-63.76
1307.232,-63.84
1307.247,-63.95
1307.262,-63.81
1307.277,-63.9
1307.292,-64.07
1307.307,-65.78
1307.322,-65.89
1307.337,-65.33
1307.352,-65.55
1307.367,-65.16
1307.382,-65.0
1307.397,-65.35
1307.412,-64.82
1307.427,-64.52
1307.442,-67.34
1307.457,-65.22
1307.472,-66.37
1307.487,-66.08
1307.502,-65.31
1307.517,-64.95
1307.532,-65.84
1307.547,-66.11
1307.562,-64.77
1307.577,-66.54
1307.592,-64.14
1307.607,-63.9
1307.622,-65.02
1307.637,-65.27
1307.652,-67.03
1307.667,-68.27
1307.682,-67.24
1307.697,-68.11
1307.712,-70.3
1307.727,-67.18
1307.742,-69.27
1307.757,-73.3
1307.772,-66.54
1307.787,-65.73
1307.802,-70.61
1307.817,-72.89
1307.832,-72.45
1307.847,-71.19
1307.862,-71.18
1307.877,-210.0
1307.892,-210.0
1307.907,-72.54
1307.922,-81.08
1307.937,-210.0
1307.952,-210.0
1307.967,-73.72
1307.982,-210.0
1307.997,-210.0
1308.012,-210.0
1308.027,-73.81
1308.042,-74.01
1308.057,-210.0
1308.072,-210.0
1308.087,-79.76
1308.102,-210.0
1308.117,-210.0
1308.132,-210.0
1308.147,-73.59
1308.162,-210.0
1308.177,-210.0
1308.192,-210.0
1308.207,-210.0
1308.222,-210.0
1308.237,-210.0
1308.252,-210.0
1308.267,-210.0
1308.282,-210.0
1308.297,-210.0
1308.312,-210.0
1308.327,-210.0
1308.342,-210.0
1308.357,-210.0
1308.372,-210.0
1308.387,-210.0
1308.402,-210.0
1308.417,-210.0
1308.432,-210.0
1308.447,-210.0
1308.462,-210.0
1308.477,-210.0
1308.492,-210.0
1308.507,-210.0
1308.522,-210.0
1308.537,-210.0
1308.552,-210.0
1308.567,-210.0
1308.582,-210.0
1308.597,-210.0
1308.612,-210.0
1308.627,-210.0
1308.642,-210.0
1308.657,-210.0
1308.672,-210.0
1308.687,-210.0
1308.702,-210.0
1308.717,-210.0
1308.732,-210.0
1308.747,-210.0
1308.762,-210.0
1308.777,-210.0
1308.792,-210.0
1308.807,-210.0
1308.822,-210.0
1308.837,-69.3
1308.852,-74.32
1308.867,-210.0
1308.882,-210.0
1308.897,-70.43
1308.912,-210.0
1308.927,-210.0
1308.942,-73.79
1308.957,-72.39
1308.972,-210.0
1308.987,-210.0
1309.002,-210.0
1309.017,-89.15
1309.032,-210.0
1309.047,-210.0
1309.062,-210.0
1309.077,-71.51
1309.092,-210.0
1309.107,-210.0
1309.122,-73.09
1309.137,-69.68
1309.152,-72.04
1309.167,-210.0
1309.182,-210.0
1309.198,-67.81
1309.212,-65.97
1309.227,-75.31
1309.242,-75.0
1309.257,-66.4
1309.272,-68.2
1309.287,-70.21
1309.302,-72.01
1309.318,-68.11
1309.333,-67.08
1309.347,-70.01
1309.362,-75.64
1309.377,-66.41
1309.392,-65.17
1309.407,-70.67
1309.422,-70.12
1309.438,-68.48
1309.453,-66.51
1309.468,-68.73
1309.483,-70.39
1309.497,-68.19
1309.512,-67.7
1309.527,-70.85
1309.542,-210.0
1309.557,-67.95
1309.573,-68.67
1309.588,-210.0
1309.603,-210.0
1309.618,-80.74
1309.632,-71.17
1309.647,-210.0
1309.662,-210.0
1309.677,-77.86
1309.693,-67.59
1309.708,-71.46
1309.723,-210.0
1309.738,-68.06
1309.753,-66.42
1309.768,-71.06
1309.782,-210.0
1309.797,-210.0
1309.813,-69.81
1309.828,-72.72
1309.843,-210.0
1309.858,-210.0
1309.873,-73.71
1309.888,-210.0
1309.903,-210.0
1309.917,-210.0
1309.932,-86.36
1309.948,-210.0
1309.963,-210.0
1309.978,-210.0
1309.993,-210.0
1310.008,-69.64
1310.023,-210.0
1310.038,-210.0
1310.053,-68.46
1310.068,-67.32
1310.083,-210.0
1310.098,-72.44
1310.113,-66.77
1310.128,-66.51
1310.143,-67.5
1310.158,-79.18
1310.173,-69.88
1310.188,-66.71
1310.203,-71.54
1310.218,-210.0
1310.233,-68.56
1310.248,-67.31
1310.263,-78.32
1310.278,-69.34
1310.293,-67.59
1310.308,-65.13
1310.323,-65.03
1310.338,-68.36
1310.353,-65.61
1310.368,-64.29
1310.383,-65.49
1310.398,-68.18
1310.413,-64.85
1310.428,-64.87
1310.443,-65.44
1310.458,-66.41
1310.473,-65.85
1310.488,-63.44
1310.503,-64.04
1310.518,-67.08
1310.533,-64.9
1310.548,-63.32
1310.563,-66.13
1310.578,-67.02
1310.593,-64.2
1310.608,-64.35
1310.623,-64.08
1310.638,-64.53
1310.653,-63.76
1310.668,-62.43
1310.683,-62.47
1310.698,-64.17
1310.713,-63.57
1310.728,-62.24
1310.743,-63.04
1310.758,-64.48
1310.773,-63.17
1310.788,-63.07
1310.803,-62.76
1310.818,-63.19
1310.833,-63.24
1310.848,-61.95
1310.863,-61.99
1310.878,-63.57
1310.893,-62.98
1310.908,-61.73
1310.923,-62.82
1310.938,-63.31
1310.953,-61.79
1310.968,-61.86
1310.983,-62.12
1310.998,-62.37
1311.013,-62.34
1311.028,-61.64
1311.043,-61.24
1311.058,-62.55
1311.073,-63.06
1311.088,-61.59
1311.103,-61.94
1311.118,-63.24
1311.133,-63.62
1311.148,-63.19
1311.163,-63.32
1311.178,-64.17
1311.193,-65.9
1311.208,-63.94
1311.223,-62.49
1311.238,-64.9
1311.253,-65.6
1311.268,-63.18
1311.283,-63.69
1311.298,-66.42
1311.313,-66.9
1311.328,-65.49
1311.343,-64.91
1311.358,-66.03
1311.373,-69.88
1311.388,-67.68
1311.403,-65.66
1311.418,-69.51
1311.433,-73.21
1311.448,-65.82
1311.463,-65.7
1311.478,-68.03
1311.493,-78.32
1311.508,-68.71
1311.523,-65.64
1311.538,-68.17
1311.553,-210.0
1311.568,-69.75
1311.583,-66.43
1311.598,-67.9
1311.613,-79.43
1311.628,-67.73
1311.643,-66.34
1311.658,-68.46
1311.673,-210.0
1311.688,-77.01
1311.703,-69.39
1311.718,-80.17
1311.733,-210.0
1311.748,-210.0
1311.763,-210.0
1311.778,-210.0
1311.793,-210.0
1311.808,-210.0
1311.823,-80.48
1311.838,-210.0
1311.853,-210.0
1311.868,-210.0
1311.883,-210.0
1311.898,-210.0
1311.913,-210.0
1311.928,-210.0
1311.943,-210.0
1311.958,-210.0
1311.973,-210.0
1311.988,-210.0
1312.003,-210.0
1312.018,-210.0
1312.033,-210.0
1312.048,-210.0
1312.063,-210.0
1312.078,-210.0
1312.093,-210.0
1312.108,-210.0
1312.123,-210.0
1312.138,-78.01
1312.153,-210.0
1312.168,-210.0
1312.183,-210.0
1312.198,-67.53
1312.213,-74.34
1312.228,-210.0
1312.243,-70.6
1312.258,-67.59
1312.273,-68.68
1312.288,-210.0
1312.303,-69.59
1312.318,-67.13
1312.333,-69.6
1312.348,-75.87
1312.363,-72.34
1312.378,-67.05
1312.393,-67.97
1312.408,-77.69
1312.423,-68.26
1312.438,-66.66
1312.453,-66.46
1312.468,-68.02
1312.483,-67.23
1312.498,-64.79
1312.513,-65.76
1312.528,-68.28
1312.543,-66.89
1312.558,-64.36
1312.573,-63.98
1312.588,-65.95
1312.603,-65.41
1312.618,-63.56
1312.633,-64.64
1312.648,-66.2
1312.663,-67.48
1312.678,-64.44
1312.693,-64.48
1312.708,-66.76
1312.723,-65.52
1312.738,-63.36
1312.753,-62.98
1312.768,-63.82
1312.783,-63.47
1312.798,-62.27
1312.813,-63.01
1312.828,-64.5
1312.843,-63.36
1312.858,-62.05
1312.873,-62.17
1312.888,-63.77
1312.903,-63.4
1312.918,-62.23
1312.933,-61.4
1312.948,-62.78
1312.963,-62.9
1312.978,-61.87
1312.993,-62.29
1313.008,-63.62
1313.023,-63.17
1313.038,-62.35
1313.053,-62.43
1313.068,-63.42
1313.083,-64.51
1313.098,-64.57
1313.113,-63.59
1313.128,-64.0
1313.143,-65.05
1313.158,-63.88
1313.173,-63.56
1313.188,-64.86
1313.203,-65.67
1313.218,-64.45
1313.233,-64.14
1313.248,-65.05
1313.263,-64.15
1313.278,-65.7
1313.293,-64.19
1313.308,-65.27
1313.323,-65.41
1313.338,-65.22
1313.353,-64.69
1313.368,-65.14
1313.383,-64.8
1313.398,-64.76
1313.413,-65.09
1313.428,-65.03
1313.443,-63.71
1313.458,-65.23
1313.473,-67.03
1313.488,-65.39
1313.503,-66.29
1313.518,-65.69
1313.533,-64.64
1313.548,-65.78
1313.563,-65.44
1313.578,-65.97
1313.593,-65.72
1313.608,-67.44
1313.623,-66.4
1313.638,-65.79
1313.653,-67.09
1313.668,-65.34
1313.683,-67.05
1313.698,-66.82
1313.713,-65.28
1313.728,-66.66
1313.743,-67.29
1313.758,-66.59
1313.773,-66.1
1313.788,-67.18
1313.803,-66.86
1313.818,-66.3
1313.833,-66.35
1313.848,-66.84
1313.863,-69.06
1313.878,-68.04
1313.893,-67.49
1313.908,-67.73
1313.923,-68.79
1313.938,-69.62
1313.953,-67.18
1313.968,-71.29
1313.983,-68.96
1313.998,-67.92
1314.013,-67.24
1314.028,-68.58
1314.043,-69.58
1314.058,-66.16
1314.073,-65.65
1314.088,-66.2
1314.103,-65.38
1314.118,-65.83
1314.133,-65.33
1314.148,-65.64
1314.163,-66.55
1314.178,-66.57
1314.193,-66.57
1314.208,-66.78
1314.223,-70.01
1314.238,-66.18
1314.253,-64.92
1314.268,-69.56
1314.283,-68.65
1314.298,-67.14
1314.313,-66.01
1314.328,-66.99
1314.343,-66.71
1314.358,-65.74
1314.373,-66.42
1314.388,-71.09
1314.403,-74.31
1314.418,-66.19
1314.433,-65.73
1314.448,-72.34
1314.463,-71.76
1314.478,-66.26
1314.493,-65.91
1314.508,-68.87
1314.523,-75.71
1314.538,-71.03
1314.553,-68.4
1314.568,-210.0
1314.583,-210.0
1314.598,-210.0
1314.613,-71.81
1314.628,-210.0
1314.643,-210.0
1314.658,-71.88
1314.673,-70.11
1314.688,-72.16
1314.703,-210.0
1314.718,-76.23
1314.733,-68.55
1314.748,-210.0
1314.763,-76.68
1314.778,-70.85
1314.793,-68.13
1314.808,-71.49
1314.823,-210.0
1314.838,-69.81
1314.853,-68.57
1314.868,-69.66
1314.883,-85.57
1314.898,-71.83
1314.913,-67.78
1314.928,-74.17
1314.943,-210.0
1314.958,-70.64
1314.973,-68.18
1314.988,-210.0
1315.003,-210.0
1315.018,-72.21
1315.033,-68.73
1315.048,-70.02
1315.063,-210.0
1315.078,-210.0
1315.093,-69.54
1315.108,-210.0
1315.123,-210.0
1315.138,-210.0
1315.153,-73.59
1315.168,-210.0
1315.183,-210.0
1315.198,-73.22
1315.213,-73.5
1315.228,-69.51
1315.243,-210.0
1315.258,-210.0
1315.273,-69.21
1315.288,-72.15
1315.303,-210.0
1315.318,-210.0
1315.333,-71.29
1315.348,-210.0
1315.363,-210.0
1315.378,-76.84
1315.393,-68.75
1315.408,-70.28
1315.423,-71.57
1315.438,-73.0
1315.453,-67.31
1315.468,-68.36
1315.483,-73.13
1315.498,-76.13
1315.513,-69.0
1315.528,-71.71
1315.543,-75.79
1315.558,-69.84
1315.573,-66.99
1315.588,-66.56
1315.603,-65.26
1315.618,-65.79
1315.633,-66.96
1315.648,-66.36
1315.663,-68.98
1315.678,-68.93
1315.693,-66.53
1315.708,-68.34
1315.723,-72.36
1315.738,-71.04
1315.753,-65.96
1315.768,-69.09
1315.783,-71.7
1315.798,-70.16
1315.813,-75.32
1315.828,-75.83
1315.843,-72.86
1315.858,-74.43
1315.873,-68.43
1315.888,-68.43
1315.903,-78.16
1315.918,-71.53
1315.933,-67.3
1315.948,-68.39
1315.963,-79.25
1315.978,-69.75
1315.993,-65.29
1316.008,-68.85
1316.023,-67.77
1316.038,-67.8
1316.053,-71.69
1316.068,-68.79
1316.083,-67.18
1316.098,-68.32
1316.113,-65.35
1316.128,-66.6
1316.143,-68.14
1316.158,-66.74
1316.173,-66.05
1316.188,-68.25
1316.203,-67.53
1316.218,-65.97
1316.233,-67.71
1316.248,-66.92
1316.263,-66.2
1316.278,-67.0
1316.293,-68.02
1316.308,-65.91
1316.323,-69.44
1316.338,-67.49
1316.353,-64.84
1316.368,-66.19
1316.383,-67.44
1316.398,-67.17
1316.413,-66.02
1316.428,-70.19
1316.443,-70.27
1316.458,-70.64
1316.473,-72.65
1316.488,-69.22
1316.503,-68.56
1316.518,-68.69
1316.533,-64.9
1316.548,-65.9
1316.563,-68.74
1316.578,-66.54
1316.593,-64.9
1316.608,-68.17
1316.623,-69.69
1316.638,-66.09
1316.653,-66.23
1316.668,-65.94
1316.683,-65.95
1316.698,-66.87
1316.713,-66.89
1316.728,-66.39
1316.743,-66.61
1316.758,-67.3
1316.773,-68.21
1316.788,-65.9
1316.803,-67.6
1316.818,-65.96
1316.833,-64.42
1316.848,-65.68
1316.863,-65.53
1316.878,-66.82
1316.893,-68.89
1316.908,-66.6
1316.923,-66.09
1316.938,-67.79
1316.953,-69.97
1316.968,-65.81
1316.983,-65.77
1316.998,-69.87
1317.013,-67.37
1317.028,-66.41
1317.043,-67.8
1317.058,-67.95
1317.073,-67.13
1317.088,-71.12
1317.103,-72.19
1317.118,-74.95
1317.133,-74.7
1317.148,-70.06
1317.163,-210.0
1317.178,-78.76
1317.193,-84.36
1317.208,-85.09
1317.224,-210.0
1317.238,-210.0
1317.253,-210.0
1317.268,-77.06
1317.283,-210.0
1317.298,-210.0
1317.313,-210.0
1317.328,-71.51
1317.344,-84.95
1317.359,-210.0
1317.373,-210.0
1317.388,-210.0
1317.403,-210.0
1317.418,-210.0
1317.433,-210.0
1317.448,-71.66
1317.464,-72.93
1317.479,-72.43
1317.494,-75.72
1317.509,-74.58
1317.523,-71.38
1317.538,-210.0
1317.553,-210.0
1317.568,-70.54
1317.583,-210.0
1317.599,-210.0
1317.614,-210.0
1317.629,-210.0
1317.644,-210.0
1317.658,-210.0
1317.673,-210.0
1317.688,-210.0
1317.703,-210.0
1317.719,-210.0
1317.734,-210.0
1317.749,-210.0
1317.764,-210.0
1317.779,-210.0
1317.794,-210.0
1317.808,-79.93
1317.823,-76.35
1317.839,-210.0
1317.854,-210.0
1317.869,-210.0
1317.884,-74.85
1317.899,-73.48
1317.914,-73.18
1317.929,-88.7
1317.944,-74.06
1317.958,-70.25
1317.974,-74.41
1317.989,-78.43
1318.004,-71.6
1318.019,-71.45
1318.034,-210.0
1318.049,-210.0
1318.064,-210.0
1318.079,-70.71
1318.094,-67.56
1318.109,-69.27
1318.124,-69.0
1318.139,-66.79
1318.154,-69.24
1318.169,-68.69
1318.184,-67.84
1318.199,-65.83
1318.214,-67.6
1318.229,-69.25
1318.244,-66.63
1318.259,-64.64
1318.274,-66.87
1318.289,-210.0
1318.304,-69.08
1318.319,-65.76
1318.334,-68.75
1318.349,-69.31
1318.364,-68.79
1318.379,-67.05
1318.394,-66.69
1318.409,-67.33
1318.424,-67.37
1318.439,-65.83
1318.454,-67.49
1318.469,-76.24
1318.484,-70.26
1318.499,-65.93
1318.514,-68.69
1318.529,-76.26
1318.544,-69.38
1318.559,-68.41
1318.574,-210.0
1318.589,-210.0
1318.604,-70.48
1318.619,-71.7
1318.634,-72.07
1318.649,-69.48
1318.664,-71.39
1318.679,-68.72
1318.694,-69.84
1318.709,-70.53
1318.724,-71.37
1318.739,-66.96
1318.754,-74.69
1318.769,-210.0
1318.784,-68.69
1318.799,-67.49
1318.814,-71.41
1318.829,-210.0
1318.844,-76.26
1318.859,-71.94
1318.874,-77.64
1318.889,-210.0
1318.904,-74.94
1318.919,-210.0
1318.934,-73.13
1318.949,-210.0
1318.964,-74.46
1318.979,-210.0
1318.994,-72.84
1319.009,-73.33
1319.024,-68.4
1319.039,-68.63
1319.054,-66.93
1319.069,-66.22
1319.084,-67.52
1319.099,-74.06
1319.114,-67.71
1319.129,-67.28
1319.144,-72.09
1319.159,-73.84
1319.174,-69.31
1319.189,-68.32
1319.204,-73.13
1319.219,-72.07
1319.234,-66.89
1319.249,-68.46
1319.264,-75.35
1319.279,-69.91
1319.294,-68.06
1319.309,-67.76
1319.324,-69.07
1319.339,-71.19
1319.354,-70.87
1319.369,-69.1
1319.384,-72.17
1319.399,-210.0
1319.414,-76.53
1319.429,-72.2
1319.444,-78.1
1319.459,-210.0
1319.474,-68.61
1319.489,-67.22
1319.504,-210.0
1319.519,-210.0
1319.534,-69.25
1319.549,-69.39
1319.564,-68.23
1319.579,-67.46
1319.594,-67.91
1319.609,-66.74
1319.624,-66.4
1319.639,-66.52
1319.654,-67.16
1319.669,-67.53
1319.684,-66.89
1319.699,-68.44
1319.714,-67.12
1319.729,-65.48
1319.744,-73.38
1319.759,-66.57
1319.774,-65.47
1319.789,-66.54
1319.804,-70.63
1319.819,-67.45
1319.834,-67.29
1319.849,-66.72
1319.864,-67.38
1319.879,-66.71
1319.894,-66.52
1319.909,-66.51
1319.924,-65.51
1319.939,-67.01
1319.954,-65.36
1319.969,-66.52
1319.984,-66.32
1319.999,-67.1
1320.014,-66.27
1320.029,-70.05
1320.044,-73.1
1320.059,-67.89
1320.074,-69.27
1320.089,-210.0
1320.104,-210.0
1320.119,-80.64
1320.134,-210.0
1320.149,-210.0
1320.164,-210.0
1320.179,-73.96
1320.194,-210.0
1320.209,-210.0
1320.224,-77.11
1320.239,-74.82
1320.254,-80.5
1320.269,-210.0
1320.284,-210.0
1320.299,-69.83
1320.314,-70.51
1320.329,-210.0
1320.344,-76.31
1320.359,-66.7
1320.374,-69.4
1320.389,-73.39
1320.404,-72.57
1320.419,-68.54
1320.434,-73.03
1320.449,-210.0
1320.464,-70.55
1320.479,-68.57
1320.494,-82.64
1320.509,-79.38
1320.524,-69.34
1320.539,-68.62
1320.554,-73.02
1320.569,-210.0
1320.584,-74.26
1320.599,-67.96
1320.614,-210.0
1320.629,-210.0
1320.644,-69.94
1320.659,-69.72
1320.674,-210.0
1320.689,-210.0
1320.704,-67.18
1320.719,-67.39
1320.734,-69.55
1320.749,-71.32
1320.764,-68.77
1320.779,-68.92
1320.794,-73.72
1320.809,-69.63
1320.824,-66.83
1320.839,-65.89
1320.854,-74.49
1320.869,-72.5
1320.884,-67.46
1320.899,-69.42
1320.914,-210.0
1320.929,-73.33
1320.944,-68.17
1320.959,-210.0
1320.974,-210.0
1320.989,-69.25
1321.004,-69.04
1321.019,-210.0
1321.034,-210.0
1321.049,-69.29
1321.064,-69.17
1321.079,-210.0
1321.094,-75.61
1321.109,-70.85
1321.124,-67.01
1321.139,-69.04
1321.154,-73.25
1321.169,-66.2
1321.184,-65.5
1321.199,-69.06
1321.214,-70.94
1321.229,-65.96
1321.244,-66.29
1321.259,-73.94
1321.274,-68.3
1321.289,-66.09
1321.304,-67.55
1321.319,-74.49
1321.334,-66.06
1321.349,-65.5
1321.364,-67.8
1321.379,-71.57
1321.394,-68.66
1321.409,-64.66
1321.424,-67.0
1321.439,-68.23
1321.454,-65.32
1321.469,-64.09
1321.484,-64.92
1321.499,-68.8
1321.514,-65.1
1321.529,-63.65
1321.544,-64.44
1321.559,-66.13
1321.574,-64.27
1321.589,-63.91
1321.604,-64.83
1321.619,-65.26
1321.634,-63.32
1321.649,-64.02
1321.664,-65.94
1321.679,-64.46
1321.694,-63.7
1321.709,-63.82
1321.724,-65.65
1321.739,-67.11
1321.754,-64.58
1321.769,-63.14
1321.784,-63.96
1321.799,-65.31
1321.814,-63.41
1321.829,-63.63
1321.844,-65.51
1321.859,-64.95
1321.874,-63.83
1321.889,-63.81
1321.904,-65.47
1321.919,-63.55
1321.934,-63.3
1321.949,-64.47
1321.964,-65.65
1321.979,-63.77
1321.994,-63.87
1322.009,-66.0
1322.024,-64.36
1322.039,-65.07
1322.054,-64.18
1322.069,-64.89
1322.084,-65.79
1322.099,-64.97
1322.114,-63.11
1322.129,-63.76
1322.144,-66.21
1322.159,-64.22
1322.174,-64.32
1322.189,-65.57
1322.204,-66.81
1322.219,-64.09
1322.234,-63.94
1322.249,-66.79
1322.264,-65.6
1322.279,-64.39
1322.294,-64.89
1322.309,-64.13
1322.324,-63.96
1322.339,-65.76
1322.354,-64.86
1322.369,-65.18
1322.384,-64.95
1322.399,-64.37
1322.414,-64.95
1322.429,-64.61
1322.444,-64.67
1322.459,-64.12
1322.474,-64.69
1322.489,-68.2
1322.504,-65.07
1322.519,-64.59
1322.534,-66.28
1322.549,-71.73
1322.564,-66.56
1322.579,-66.28
1322.594,-70.46
1322.609,-72.23
1322.624,-70.75
1322.639,-68.67
1322.654,-68.25
1322.669,-70.69
1322.684,-67.79
1322.699,-66.38
1322.714,-68.75
1322.729,-68.88
1322.744,-67.9
1322.759,-66.05
1322.774,-77.14
1322.789,-210.0
1322.804,-68.34
1322.819,-68.22
1322.834,-210.0
1322.849,-80.37
1322.864,-67.71
1322.879,-69.48
1322.894,-210.0
1322.909,-73.27
1322.924,-68.42
1322.939,-210.0
1322.954,-210.0
1322.969,-68.47
1322.984,-68.44
1322.999,-68.96
1323.014,-68.81
1323.029,-68.83
1323.044,-65.23
1323.059,-66.6
1323.074,-71.43
1323.089,-66.53
1323.104,-64.8
1323.119,-66.56
1323.134,-70.11
1323.149,-64.71
1323.164,-64.52
1323.179,-67.11
1323.194,-67.52
1323.209,-63.88
1323.224,-64.25
1323.239,-67.82
1323.254,-65.56
1323.269,-63.54
1323.284,-65.58
1323.299,-66.58
1323.314,-66.26
1323.329,-65.48
1323.344,-65.6
1323.359,-65.99
1323.374,-67.12
1323.389,-64.23
1323.404,-65.22
1323.419,-69.15
1323.434,-66.68
1323.449,-65.14
1323.464,-68.06
1323.479,-75.85
1323.494,-66.63
1323.509,-65.85
1323.524,-69.98
1323.539,-69.23
1323.554,-65.77
1323.569,-66.07
1323.584,-69.73
1323.599,-66.06
1323.614,-65.07
1323.629,-65.16
1323.644,-65.83
1323.659,-66.83
1323.674,-65.11
1323.689,-65.79
1323.704,-66.2
1323.719,-65.88
1323.734,-65.16
1323.749,-65.38
1323.764,-70.5
1323.779,-65.97
1323.794,-64.52
1323.809,-67.26
1323.824,-69.23
1323.839,-65.63
1323.854,-65.8
1323.869,-70.85
1323.884,-70.16
1323.899,-64.77
1323.914,-65.61
1323.929,-69.85
1323.944,-66.67
1323.959,-64.67
1323.974,-67.55
1323.989,-67.38
1324.004,-67.41
1324.019,-65.94
1324.034,-67.83
1324.049,-67.59
1324.064,-67.88
1324.079,-68.44
1324.094,-69.2
1324.109,-69.54
1324.124,-69.36
1324.139,-66.3
1324.154,-72.22
1324.169,-81.46
1324.184,-66.66
1324.199,-66.23
1324.214,-71.86
1324.229,-70.77
1324.244,-66.09
1324.259,-67.8
1324.274,-210.0
1324.289,-67.97
1324.304,-65.52
1324.319,-75.33
1324.334,-73.03
1324.349,-66.63
1324.364,-68.67
1324.379,-70.18
1324.394,-70.46
1324.409,-69.94
1324.424,-70.4
1324.439,-73.07
1324.454,-69.76
1324.469,-68.4
1324.484,-68.74
1324.499,-69.96
1324.514,-77.36
1324.529,-66.06
1324.544,-66.82
1324.559,-70.04
1324.574,-68.08
1324.589,-64.75
1324.604,-66.02
1324.619,-71.06
1324.634,-66.15
1324.649,-65.01
1324.664,-68.41
1324.679,-69.9
1324.694,-64.96
1324.709,-65.73
1324.724,-71.3
1324.739,-68.87
1324.754,-67.51
1324.769,-65.88
1324.784,-68.09
1324.799,-67.91
1324.814,-64.86
1324.829,-65.91
1324.844,-66.79
1324.859,-65.24
1324.874,-63.68
1324.889,-63.24
1324.904,-65.34
1324.919,-65.02
1324.934,-63.29
1324.949,-63.87
1324.964,-66.63
1324.979,-64.28
1324.994,-63.3
1325.009,-65.23
1325.024,-68.12
1325.039,-64.22
1325.054,-64.28
1325.069,-66.38
1325.084,-64.75
1325.099,-63.02
1325.114,-63.83
1325.129,-65.41
1325.144,-65.21
1325.159,-63.34
1325.174,-63.34
1325.189,-65.83
1325.204,-65.03
1325.219,-63.51
1325.234,-64.87
1325.25,-66.31
1325.264,-64.5
1325.279,-63.13
1325.294,-63.08
1325.309,-64.74
1325.324,-63.71
1325.339,-63.0
1325.354,-63.83
1325.37,-65.03
1325.385,-62.97
1325.4,-62.93
1325.414,-64.61
1325.429,-63.91
1325.444,-62.62
1325.459,-62.78
1325.474,-63.62
1325.49,-63.21
1325.505,-62.75
1325.52,-62.19
1325.535,-64.32
1325.549,-63.85
1325.564,-62.53
1325.579,-63.06
1325.594,-65.69
1325.609,-65.02
1325.625,-63.1
1325.64,-63.93
1325.655,-67.41
1325.67,-63.91
1325.685,-62.82
1325.699,-64.99
1325.714,-66.48
1325.729,-65.6
1325.745,-64.37
1325.76,-64.52
1325.775,-65.71
1325.79,-64.57
1325.805,-64.17
1325.82,-66.02
1325.834,-66.55
1325.849,-64.76
1325.865,-64.94
1325.88,-65.98
1325.895,-69.14
1325.91,-65.66
1325.925,-64.78
1325.94,-68.63
1325.955,-69.35
1325.97,-64.75
1325.984,-66.74
1326.0,-72.22
1326.015,-67.21
1326.03,-64.37
1326.045,-66.96
1326.06,-67.8
1326.075,-65.22
1326.09,-64.99
1326.105,-70.26
1326.12,-67.83
1326.135,-64.66
1326.15,-65.48
1326.165,-70.74
1326.18,-67.48
1326.195,-65.1
1326.21,-66.66
1326.225,-69.44
1326.24,-65.63
1326.255,-64.97
1326.27,-69.12
1326.285,-69.3
1326.3,-71.02
1326.315,-70.1
1326.33,-71.95
1326.345,-210.0
1326.36,-210.0
1326.375,-67.54
1326.39,-75.75
1326.405,-210.0
1326.42,-72.08
1326.435,-67.93
1326.45,-75.25
1326.465,-79.55
1326.48,-69.15
1326.495,-68.53
1326.51,-75.24
1326.525,-72.23
1326.54,-67.38
1326.555,-70.73
1326.57,-210.0
1326.585,-76.99
1326.6,-68.49
1326.615,-69.88
1326.63,-73.3
1326.645,-70.31
1326.66,-66.12
1326.675,-70.65
1326.69,-74.67
1326.705,-68.34
1326.72,-67.08
1326.735,-65.81
1326.75,-65.53
1326.765,-66.76
1326.78,-67.36
1326.795,-66.63
1326.81,-66.36
1326.825,-67.63
1326.84,-67.1
1326.855,-67.49
1326.87,-67.39
1326.885,-66.95
1326.9,-68.21
1326.915,-66.17
1326.93,-67.11
1326.945,-66.72
1326.96,-66.98
1326.975,-70.94
1326.99,-66.42
1327.005,-64.84
1327.02,-67.07
1327.035,-69.13
1327.05,-65.88
1327.065,-65.79
1327.08,-69.67
1327.095,-67.79
1327.11,-65.44
1327.125,-68.62
1327.14,-71.04
1327.155,-67.63
1327.17,-65.93
1327.185,-77.8
1327.2,-75.4
1327.215,-68.16
1327.23,-68.56
1327.245,-76.43
1327.26,-71.22
1327.275,-66.55
1327.29,-69.64
1327.305,-69.16
1327.32,-67.28
1327.335,-65.62
1327.35,-66.27
1327.365,-65.42
1327.38,-66.1
1327.395,-66.95
1327.41,-66.38
1327.425,-65.44
1327.44,-67.26
1327.455,-67.79
1327.47,-67.85
1327.485,-69.3
1327.5,-72.24
1327.515,-71.16
1327.53,-70.35
1327.545,-69.04
1327.56,-67.35
1327.575,-65.7
1327.59,-68.65
1327.605,-68.07
1327.62,-65.03
1327.635,-66.69
1327.65,-68.71
1327.665,-67.15
1327.68,-65.05
1327.695,-68.12
1327.71,-68.93
1327.725,-69.66
1327.74,-67.51
1327.755,-71.22
1327.77,-210.0
1327.785,-69.02
1327.8,-69.34
1327.815,-79.57
1327.83,-72.07
1327.845,-66.99
1327.86,-68.73
1327.875,-72.37
1327.89,-70.62
1327.905,-67.15
1327.92,-74.2
1327.935,-78.77
1327.95,-68.45
1327.965,-68.54
1327.98,-68.09
1327.995,-67.84
1328.01,-67.97
1328.025,-68.18
1328.04,-68.85
1328.055,-68.41
1328.07,-68.64
1328.085,-69.44
1328.1,-74.59
1328.115,-71.08
1328.13,-67.36
1328.145,-68.99
1328.16,-70.18
1328.175,-69.44
1328.19,-64.73
1328.205,-65.19
1328.22,-69.02
1328.235,-66.16
1328.25,-64.19
1328.265,-66.03
1328.28,-68.36
1328.295,-64.21
1328.31,-64.64
1328.325,-67.7
1328.34,-68.08
1328.355,-64.4
1328.37,-65.78
1328.385,-69.43
1328.4,-65.53
1328.415,-64.16
1328.43,-67.9
1328.445,-68.87
1328.46,-64.46
1328.475,-64.91
1328.49,-67.73
1328.505,-65.76
1328.52,-63.65
1328.535,-64.99
1328.55,-67.93
1328.565,-66.05
1328.58,-67.0
1328.595,-67.29
1328.61,-66.24
1328.625,-66.7
1328.64,-66.17
1328.655,-66.92
1328.67,-66.63
1328.685,-68.71
1328.7,-67.8
1328.715,-69.1
1328.73,-66.62
1328.745,-67.49
1328.76,-69.23
1328.775,-66.71
1328.79,-66.54
1328.805,-64.91
1328.82,-64.51
1328.835,-66.72
1328.85,-66.62
1328.865,-64.73
1328.88,-65.09
1328.895,-67.4
1328.91,-65.73
1328.925,-64.64
1328.94,-66.98
1328.955,-68.22
1328.97,-66.13
1328.985,-66.0
1329.0,-68.27
1329.015,-68.55
1329.03,-66.01
1329.045,-67.56
1329.06,-68.75
1329.075,-67.33
1329.09,-65.84
1329.105,-66.05
1329.12,-65.71
1329.135,-65.64
1329.15,-64.91
1329.165,-66.21
1329.18,-64.54
1329.195,-65.33
1329.21,-68.21
1329.225,-65.49
1329.24,-64.84
1329.255,-67.55
1329.27,-69.28
1329.285,-65.73
1329.3,-66.22
1329.315,-67.44
1329.33,-67.32
1329.345,-65.27
1329.36,-66.45
1329.375,-68.2
1329.39,-66.18
1329.405,-69.56
1329.42,-69.25
1329.435,-66.07
1329.45,-66.74
1329.465,-68.33
1329.48,-66.25
1329.495,-65.02
1329.51,-67.11
1329.525,-67.43
1329.54,-65.84
1329.555,-65.68
1329.57,-67.11
1329.585,-65.95
1329.6,-64.69
1329.615,-66.12
1329.63,-68.56
1329.645,-67.13
1329.66,-65.01
1329.675,-67.54
1329.69,-67.19
1329.705,-64.56
1329.72,-64.65
1329.735,-66.32
1329.75,-65.36
1329.765,-63.41
1329.78,-64.6
1329.795,-65.64
1329.81,-65.22
1329.825,-66.82
1329.84,-66.73
1329.855,-66.32
1329.87,-66.09
1329.885,-66.19
1329.9,-66.18
1329.915,-66.38
1329.93,-66.51
1329.945,-66.11
1329.96,-65.79
1329.975,-65.42
1329.99,-65.49
1330.005,-65.96
1330.02,-65.02
1330.035,-65.15
1330.05,-64.67
1330.065,-64.45
1330.08,-64.92
1330.095,-64.99
1330.11,-65.1
1330.125,-65.74
1330.14,-65.05
1330.155,-65.86
1330.17,-65.87
1330.185,-65.77
1330.2,-67.55
1330.215,-66.99
1330.23,-66.84
1330.245,-67.36
1330.26,-67.27
1330.275,-67.82
1330.29,-67.61
1330.305,-67.98
1330.32,-71.02
1330.335,-69.24
1330.35,-68.3
1330.365,-69.09
1330.38,-68.71
1330.395,-68.66
1330.41,-65.35
1330.425,-65.49
1330.44,-69.12
1330.455,-65.37
1330.47,-65.11
1330.485,-68.61
1330.5,-69.71
1330.515,-65.29
1330.53,-65.92
1330.545,-70.99
1330.56,-69.45
1330.575,-65.55
1330.59,-67.21
1330.605,-71.41
1330.62,-67.28
1330.635,-68.21
1330.65,-66.38
1330.665,-67.64
1330.68,-68.43
1330.695,-66.61
1330.71,-68.09
1330.725,-68.54
1330.74,-69.14
1330.755,-68.14
1330.77,-71.13
1330.785,-71.38
1330.8,-68.21
1330.815,-68.77
1330.83,-68.91
1330.845,-71.02
1330.86,-68.39
1330.875,-68.77
1330.89,-73.67
1330.905,-74.05
1330.92,-69.84
1330.935,-73.07
1330.95,-71.93
1330.965,-72.49
1330.98,-73.41
1330.995,-81.32
1331.01,-79.23
1331.025,-72.72
1331.04,-210.0
1331.055,-210.0
1331.07,-210.0
1331.085,-210.0
1331.1,-210.0
1331.115,-210.0
1331.13,-210.0
1331.145,-210.0
1331.16,-210.0
1331.175,-210.0
1331.19,-210.0
1331.205,-210.0
1331.22,-210.0
1331.235,-210.0
1331.25,-210.0
1331.265,-210.0
1331.28,-72.86
1331.295,-210.0
1331.31,-210.0
1331.325,-210.0
1331.34,-71.32
1331.355,-210.0
1331.37,-210.0
1331.385,-210.0
1331.4,-210.0
1331.415,-210.0
1331.43,-210.0
1331.445,-210.0
1331.46,-210.0
1331.475,-210.0
1331.49,-210.0
1331.505,-210.0
1331.52,-210.0
1331.535,-210.0
1331.55,-210.0
1331.565,-210.0
1331.58,-210.0
1331.595,-210.0
1331.61,-72.37
1331.625,-210.0
1331.64,-72.69
1331.655,-74.6
1331.67,-210.0
1331.685,-71.81
1331.7,-210.0
1331.715,-75.94
1331.73,-210.0
1331.745,-94.29
1331.76,-210.0
1331.775,-210.0
1331.79,-210.0
1331.805,-210.0
1331.82,-210.0
1331.835,-210.0
1331.85,-210.0
1331.865,-210.0
1331.88,-210.0
1331.895,-210.0
1331.91,-73.15
1331.925,-73.42
1331.94,-71.18
1331.955,-72.78
1331.97,-72.02
1331.985,-72.15
1332.0,-72.08
1332.015,-72.09
1332.03,-71.81
1332.045,-71.15
1332.06,-68.86
1332.075,-71.33
1332.09,-72.84
1332.105,-70.25
1332.12,-68.92
1332.135,-69.13
1332.15,-69.64
1332.165,-67.8
1332.18,-68.81
1332.195,-67.69
1332.21,-68.23
1332.225,-67.25
1332.24,-69.98
1332.255,-67.14
1332.27,-67.44
1332.285,-70.3
1332.3,-69.92
1332.315,-66.41
1332.33,-67.34
1332.345,-71.27
1332.36,-68.49
1332.375,-66.77
1332.39,-67.07
1332.405,-66.16
1332.42,-67.5
1332.435,-68.07
1332.45,-67.43
1332.465,-65.52
1332.48,-67.15
1332.495,-66.93
1332.51,-65.9
1332.525,-66.11
1332.54,-67.06
1332.555,-66.67
1332.57,-66.17
1332.585,-66.83
1332.6,-68.91
1332.615,-68.0
1332.63,-67.03
1332.645,-68.6
1332.66,-68.97
1332.675,-68.31
1332.69,-69.12
1332.705,-67.67
1332.72,-68.52
1332.735,-69.28
1332.75,-68.56
1332.765,-67.37
1332.78,-67.09
1332.795,-67.71
1332.81,-66.93
1332.825,-66.44
1332.84,-68.16
1332.855,-68.87
1332.87,-68.5
1332.885,-68.05
1332.9,-67.64
1332.915,-68.88
1332.93,-68.19
1332.945,-69.39
1332.96,-69.71
1332.975,-68.81
1332.99,-66.93
1333.005,-69.03
1333.02,-68.33
1333.035,-67.62
1333.05,-67.3
1333.065,-68.02
1333.08,-67.39
1333.095,-66.27
1333.11,-66.56
1333.125,-66.67
1333.141,-67.35
1333.155,-67.4
1333.17,-67.99
1333.185,-67.54
1333.2,-68.08
1333.215,-67.45
1333.23,-68.67
1333.245,-67.59
1333.26,-66.09
1333.276,-67.34
1333.29,-69.85
1333.305,-66.72
1333.32,-65.88
1333.335,-66.71
1333.35,-68.32
1333.365,-64.88
1333.38,-66.07
1333.396,-66.96
1333.411,-69.71
1333.426,-64.85
1333.44,-63.81
1333.455,-66.2
1333.47,-66.1
1333.485,-63.69
1333.5,-64.52
1333.516,-68.02
1333.531,-64.81
1333.546,-63.9
1333.561,-65.99
1333.575,-67.43
1333.59,-64.68
1333.605,-63.77
1333.62,-66.13
1333.635,-67.26
1333.651,-64.15
1333.666,-65.13
1333.681,-67.45
1333.696,-65.0
1333.711,-64.05
1333.725,-66.61
1333.74,-66.83
1333.755,-64.17
1333.771,-63.74
1333.786,-66.31
1333.801,-65.4
1333.816,-63.2
1333.831,-64.14
1333.846,-65.5
1333.86,-63.86
1333.875,-62.73
1333.891,-64.39
1333.906,-65.37
1333.921,-62.99
1333.936,-63.23
1333.951,-65.01
1333.966,-64.09
1333.981,-62.55
1333.996,-64.03
1334.01,-65.34
1334.026,-63.12
1334.041,-62.75
1334.056,-64.84
1334.071,-64.61
1334.086,-62.76
1334.101,-63.31
1334.116,-65.42
1334.131,-64.23
1334.146,-62.61
1334.161,-63.89
1334.176,-65.22
1334.191,-62.82
1334.206,-62.99
1334.221,-65.2
1334.236,-64.42
1334.251,-62.8
1334.266,-63.72
1334.281,-65.03
1334.296,-62.84
1334.311,-62.4
1334.326,-64.2
1334.341,-64.46
1334.356,-62.78
1334.371,-63.16
1334.386,-64.72
1334.401,-64.68
1334.416,-63.02
1334.431,-64.19
1334.446,-67.06
1334.461,-64.57
1334.476,-64.13
1334.491,-67.78
1334.506,-67.94
1334.521,-64.47
1334.536,-64.59
1334.551,-67.4
1334.566,-66.51
1334.581,-64.3
1334.596,-65.64
1334.611,-68.51
1334.626,-64.99
1334.641,-64.12
1334.656,-66.72
1334.671,-67.98
1334.686,-65.18
1334.701,-65.22
1334.716,-69.55
1334.731,-67.28
1334.746,-65.23
1334.761,-65.99
1334.776,-71.21
1334.791,-67.08
1334.806,-66.05
1334.821,-69.94
1334.836,-75.88
1334.851,-67.97
1334.866,-68.28
1334.881,-74.82
1334.896,-69.94
1334.911,-66.24
1334.926,-67.87
1334.941,-73.97
1334.956,-67.21
1334.971,-66.64
1334.986,-70.35
1335.001,-78.03
1335.016,-66.98
1335.031,-67.38
1335.046,-71.8
1335.061,-69.87
1335.076,-67.08
1335.091,-68.95
1335.106,-76.01
1335.121,-68.62
1335.136,-67.43
1335.151,-71.67
1335.166,-210.0
1335.181,-67.68
1335.196,-68.14
1335.211,-73.34
1335.226,-67.77
1335.241,-66.77
1335.256,-68.08
1335.271,-71.45
1335.286,-68.26
1335.301,-70.25
1335.316,-210.0
1335.331,-210.0
1335.346,-70.57
1335.361,-72.55
1335.376,-210.0
1335.391,-72.68
1335.406,-68.0
1335.421,-210.0
1335.436,-210.0
1335.451,-68.57
1335.466,-210.0
1335.481,-210.0
1335.496,-68.38
1335.511,-67.09
1335.526,-75.05
1335.541,-210.0
1335.556,-68.24
1335.571,-66.87
1335.586,-75.4
1335.601,-68.69
1335.616,-65.31
1335.631,-67.99
1335.646,-74.9
1335.661,-67.2
1335.676,-65.57
1335.691,-67.69
1335.706,-69.94
1335.721,-65.68
1335.736,-65.25
1335.751,-68.33
1335.766,-67.6
1335.781,-64.43
1335.796,-66.07
1335.811,-69.3
1335.826,-65.71
1335.841,-64.54
1335.856,-67.25
1335.871,-66.19
1335.886,-64.67
1335.901,-64.95
1335.916,-68.32
1335.931,-67.03
1335.946,-65.06
1335.961,-67.07
1335.976,-67.9
1335.991,-66.01
1336.006,-65.29
1336.021,-68.4
1336.036,-67.71
1336.051,-66.43
1336.066,-66.0
1336.081,-69.77
1336.096,-68.81
1336.111,-65.45
1336.126,-66.98
1336.141,-67.41
1336.156,-66.25
1336.171,-64.88
1336.186,-66.89
1336.201,-67.96
1336.216,-66.11
1336.231,-66.44
1336.246,-68.52
1336.261,-68.69
1336.276,-65.9
1336.291,-66.79
1336.306,-69.02
1336.321,-67.22
1336.336,-65.19
1336.351,-68.72
1336.366,-68.99
1336.381,-66.45
1336.396,-65.71
1336.411,-73.81
1336.426,-65.66
1336.441,-65.17
1336.456,-68.43
1336.471,-68.97
1336.486,-65.69
1336.501,-66.49
1336.516,-72.89
1336.531,-69.81
1336.546,-66.15
1336.561,-67.15
1336.576,-210.0
1336.591,-68.93
1336.606,-67.49
1336.621,-80.07
1336.636,-210.0
1336.651,-69.49
1336.666,-76.34
1336.681,-210.0
1336.696,-75.02
1336.711,-69.32
1336.726,-210.0
1336.741,-210.0
1336.756,-69.7
1336.771,-70.79
1336.786,-210.0
1336.801,-210.0
1336.816,-68.94
1336.831,-210.0
1336.846,-210.0
1336.861,-210.0
1336.876,-72.33
1336.891,-210.0
1336.906,-210.0
1336.921,-71.24
1336.936,-72.43
1336.951,-210.0
1336.966,-210.0
1336.981,-70.75
1336.996,-210.0
1337.011,-210.0
1337.026,-71.82
1337.041,-72.84
1337.056,-210.0
1337.071,-210.0
1337.086,-67.97
1337.101,-69.77
1337.116,-210.0
1337.131,-77.06
1337.146,-69.84
1337.161,-74.34
1337.176,-210.0
1337.191,-71.65
1337.206,-68.93
1337.221,-73.02
1337.236,-210.0
1337.251,-70.93
1337.266,-69.44
1337.281,-210.0
1337.296,-210.0
1337.311,-68.5
1337.326,-71.29
1337.341,-210.0
1337.356,-70.24
1337.371,-67.54
1337.386,-69.28
1337.401,-210.0
1337.416,-67.69
1337.431,-67.1
1337.446,-73.99
1337.461,-71.53
1337.476,-65.69
1337.491,-65.9
1337.506,-72.27
1337.521,-67.07
1337.536,-64.89
1337.551,-66.85
1337.566,-71.18
1337.581,-66.2
1337.596,-65.29
1337.611,-71.58
1337.626,-70.0
1337.641,-65.53
1337.656,-67.41
1337.671,-71.96
1337.686,-65.44
1337.701,-65.17
1337.716,-67.26
1337.731,-67.94
1337.746,-64.59
1337.761,-65.64
1337.776,-69.33
1337.791,-65.91
1337.806,-64.56
1337.821,-66.15
1337.836,-69.08
1337.851,-64.83
1337.866,-64.0
1337.881,-66.44
1337.896,-68.23
1337.911,-64.15
1337.926,-64.17
1337.941,-67.29
1337.956,-65.5
1337.971,-63.45
1337.986,-64.68
1338.001,-66.95
1338.016,-64.29
1338.031,-63.33
1338.046,-64.44
1338.061,-64.98
1338.076,-63.22
1338.091,-63.96
1338.106,-65.59
1338.121,-64.31
1338.136,-63.5
1338.151,-65.45
1338.166,-65.48
1338.181,-63.59
1338.196,-64.71
1338.211,-66.39
1338.226,-65.59
1338.241,-64.14
1338.256,-65.53
1338.271,-65.35
1338.286,-64.14
1338.301,-63.14
1338.316,-65.45
1338.331,-64.34
1338.346,-63.19
1338.361,-64.25
1338.376,-64.19
1338.391,-63.85
1338.406,-63.37
1338.421,-64.29
1338.436,-64.4
1338.451,-63.63
1338.466,-64.2
1338.481,-65.23
1338.496,-64.85
1338.511,-63.28
1338.526,-64.44
1338.541,-64.97
1338.556,-63.59
1338.571,-62.89
1338.586,-64.01
1338.601,-64.14
1338.616,-62.72
1338.631,-62.62
1338.646,-63.68
1338.661,-62.9
1338.676,-62.14
1338.691,-63.63
1338.706,-63.81
1338.721,-63.14
1338.736,-63.06
1338.751,-65.1
1338.766,-64.84
1338.781,-62.8
1338.796,-64.11
1338.811,-64.91
1338.826,-63.84
1338.841,-62.51
1338.856,-63.68
1338.871,-63.85
1338.886,-63.03
1338.901,-62.7
1338.916,-64.35
1338.931,-64.44
1338.946,-63.01
1338.961,-63.63
1338.976,-64.65
1338.991,-63.78
1339.006,-62.95
1339.021,-63.86
1339.036,-64.89
1339.051,-64.01
1339.066,-63.5
1339.081,-64.82
1339.096,-64.95
1339.111,-63.33
1339.126,-64.67
1339.141,-63.95
1339.156,-63.28
1339.171,-64.67
1339.186,-64.54
1339.201,-63.23
1339.216,-63.5
1339.231,-64.19
1339.246,-63.64
1339.261,-62.61
1339.276,-64.3
1339.291,-64.6
1339.306,-63.78
1339.321,-63.33
1339.336,-65.62
1339.351,-65.48
1339.366,-63.18
1339.381,-64.35
1339.396,-66.38
1339.411,-64.47
1339.426,-63.43
1339.441,-64.92
1339.456,-64.97
1339.471,-62.94
1339.486,-62.83
1339.501,-64.62
1339.516,-65.25
1339.531,-63.4
1339.546,-63.79
1339.561,-65.34
1339.576,-64.71
1339.591,-63.85
1339.606,-65.68
1339.621,-66.3
1339.636,-65.32
1339.651,-64.27
1339.666,-66.23
1339.681,-66.37
1339.696,-63.81
1339.711,-64.76
1339.726,-66.93
1339.741,-64.96
1339.756,-63.39
1339.771,-64.21
1339.786,-65.91
1339.801,-63.72
1339.816,-63.39
1339.831,-65.74
1339.846,-65.69
1339.861,-64.27
1339.876,-64.71
1339.891,-64.06
1339.906,-63.91
1339.921,-64.15
1339.936,-63.85
1339.951,-64.52
1339.966,-64.39
1339.981,-64.02
1339.996,-63.91
1340.011,-64.41
1340.026,-64.48
1340.041,-63.77
1340.056,-63.98
1340.071,-64.58
1340.086,-64.65
1340.101,-63.9
1340.116,-64.42
1340.131,-63.81
1340.146,-65.64
1340.161,-64.39
1340.176,-63.28
1340.191,-65.46
1340.206,-65.93
1340.221,-63.89
1340.236,-63.97
1340.251,-65.86
1340.266,-65.4
1340.281,-64.05
1340.296,-65.35
1340.311,-67.48
1340.326,-65.79
1340.341,-63.68
1340.356,-64.78
1340.371,-65.73
1340.386,-64.29
1340.401,-63.78
1340.416,-65.78
1340.431,-65.34
1340.446,-63.63
1340.461,-64.65
1340.476,-66.51
1340.491,-65.26
1340.506,-63.75
1340.521,-64.8
1340.536,-65.13
1340.551,-64.01
1340.566,-64.4
1340.581,-64.02
1340.596,-64.42
1340.611,-64.38
1340.626,-63.89
1340.641,-63.39
1340.656,-64.1
1340.671,-64.28
1340.686,-63.75
1340.701,-64.19
1340.716,-63.81
1340.731,-63.64
1340.746,-63.99
1340.761,-64.04
1340.776,-64.44
1340.791,-64.8
1340.806,-64.25
1340.821,-65.2
1340.836,-65.21
1340.851,-64.91
1340.866,-64.54
1340.881,-64.35
1340.896,-69.8
1340.911,-68.04
1340.926,-65.04
1340.941,-66.9
1340.956,-67.91
1340.971,-65.69
1340.986,-66.36
1341.001,-65.96
1341.016,-65.86
1341.031,-65.56
1341.046,-66.8
1341.061,-66.14
1341.076,-65.36
1341.091,-64.95
1341.106,-65.3
1341.121,-65.67
1341.136,-65.81
1341.151,-66.31
1341.167,-69.06
1341.181,-67.4
1341.196,-66.47
1341.211,-68.39
1341.226,-69.51
1341.241,-67.53
1341.256,-65.63
1341.271,-70.32
1341.286,-67.95
1341.302,-65.38
1341.316,-65.35
1341.331,-68.09
1341.346,-68.2
1341.361,-65.53
1341.376,-67.46
1341.391,-69.93
1341.406,-69.39
1341.422,-69.93
1341.437,-69.99
1341.452,-69.86
1341.466,-69.73
1341.481,-71.25
1341.496,-74.42
1341.511,-78.62
1341.526,-74.99
1341.542,-84.41
1341.557,-75.77
1341.572,-69.5
1341.587,-210.0
1341.601,-210.0
1341.616,-69.49
1341.631,-70.04
1341.646,-210.0
1341.661,-73.65
1341.677,-67.95
1341.692,-83.01
1341.707,-210.0
1341.722,-85.14
1341.737,-69.04
1341.751,-210.0
1341.766,-210.0
1341.781,-73.73
1341.797,-71.26
1341.812,-210.0
1341.827,-210.0
1341.842,-67.9
1341.857,-72.07
1341.872,-76.77
1341.887,-73.86
1341.901,-66.58
1341.917,-73.54
1341.932,-74.09
1341.947,-67.34
1341.962,-69.66
1341.977,-210.0
1341.992,-69.25
1342.007,-71.78
1342.022,-210.0
1342.036,-210.0
1342.052,-69.0
1342.067,-210.0
1342.082,-210.0
1342.097,-71.62
1342.112,-210.0
1342.127,-210.0
1342.142,-79.81
1342.157,-69.78
1342.172,-71.22
1342.187,-210.0
1342.202,-68.31
1342.217,-66.05
1342.232,-69.04
1342.247,-68.26
1342.262,-68.95
1342.277,-67.99
1342.292,-69.24
1342.307,-68.56
1342.322,-68.03
1342.337,-68.83
1342.352,-67.76
1342.367,-67.94
1342.382,-67.39
1342.397,-68.29
1342.412,-67.21
1342.427,-64.93
1342.442,-66.69
1342.457,-69.58
1342.472,-67.03
1342.487,-65.42
1342.502,-67.54
1342.517,-66.76
1342.532,-64.58
1342.547,-65.36
1342.562,-68.05
1342.577,-66.03
1342.592,-64.19
1342.607,-66.46
1342.622,-66.29
1342.637,-65.38
1342.652,-65.53
1342.667,-68.91
1342.682,-69.39
1342.697,-69.5
1342.712,-66.42
1342.727,-67.35
1342.742,-70.85
1342.757,-69.55
1342.772,-66.69
1342.787,-67.36
1342.802,-69.69
1342.817,-66.57
1342.832,-66.88
1342.847,-69.58
1342.862,-69.2
1342.877,-67.2
1342.892,-66.48
1342.907,-70.25
1342.922,-68.05
1342.937,-66.45
1342.952,-68.68
1342.967,-71.94
1342.982,-68.79
1342.997,-68.03
1343.012,-68.8
1343.027,-71.94
1343.042,-67.15
1343.057,-68.47
1343.072,-68.07
1343.087,-69.61
1343.102,-73.91
1343.117,-210.0
1343.132,-69.46
1343.147,-71.25
1343.162,-210.0
1343.177,-74.71
1343.192,-67.45
1343.207,-71.01
1343.222,-210.0
1343.237,-72.54
1343.252,-69.27
1343.267,-210.0
1343.282,-210.0
1343.297,-71.27
1343.312,-77.46
1343.327,-210.0
1343.342,-210.0
1343.357,-73.35
1343.372,-210.0
1343.387,-210.0
1343.402,-76.3
1343.417,-77.67
1343.432,-210.0
1343.447,-210.0
1343.462,-74.39
1343.477,-71.71
1343.492,-210.0
1343.507,-210.0
1343.522,-210.0
1343.537,-210.0
1343.552,-210.0
1343.567,-77.34
1343.582,-210.0
1343.597,-210.0
1343.612,-210.0
1343.627,-210.0
1343.642,-210.0
1343.657,-210.0
1343.672,-78.77
1343.687,-210.0
1343.702,-210.0
1343.717,-210.0
1343.732,-81.99
1343.747,-77.76
1343.762,-210.0
1343.777,-210.0
1343.792,-210.0
1343.807,-71.87
1343.822,-83.67
1343.837,-86.79
1343.852,-71.58
1343.867,-70.71
1343.882,-82.39
1343.897,-210.0
1343.912,-71.25
1343.927,-68.11
1343.942,-68.36
1343.957,-70.21
1343.972,-71.49
1343.987,-67.39
1344.002,-66.18
1344.017,-68.48
1344.032,-66.24
1344.047,-65.17
1344.062,-65.77
1344.077,-66.87
1344.092,-66.64
1344.107,-65.85
1344.122,-63.96
1344.137,-66.03
1344.152,-66.32
1344.167,-64.58
1344.182,-64.44
1344.197,-66.74
1344.212,-66.15
1344.227,-64.59
1344.242,-65.84
1344.257,-66.89
1344.272,-65.46
1344.287,-64.29
1344.302,-66.48
1344.317,-66.02
1344.332,-64.06
1344.347,-64.54
1344.362,-66.36
1344.377,-66.26
1344.392,-66.27
1344.407,-65.73
1344.422,-66.01
1344.437,-67.03
1344.452,-66.1
1344.467,-64.93
1344.482,-67.61
1344.497,-67.4
1344.512,-64.9
1344.527,-65.16
1344.542,-64.13
1344.557,-65.28
1344.572,-64.54
1344.587,-64.3
1344.602,-63.73
1344.617,-64.75
1344.632,-64.69
1344.647,-64.2
1344.662,-64.17
1344.677,-65.21
1344.692,-64.5
1344.707,-63.84
1344.722,-64.26
1344.737,-64.04
1344.752,-64.37
1344.767,-64.32
1344.782,-64.46
1344.797,-64.93
1344.812,-69.29
1344.827,-65.27
1344.842,-65.39
1344.857,-69.85
1344.872,-68.96
1344.887,-65.13
1344.902,-65.29
1344.917,-70.96
1344.932,-68.2
1344.947,-67.83
1344.962,-72.44
1344.977,-69.47
1344.992,-66.31
1345.007,-68.44
1345.022,-72.69
1345.037,-68.86
1345.052,-69.29
1345.067,-76.19
1345.082,-84.69
1345.097,-74.47
1345.112,-71.78
1345.127,-210.0
1345.142,-75.17
1345.157,-68.36
1345.172,-73.18
1345.187,-210.0
1345.202,-74.4
1345.217,-210.0
1345.232,-210.0
1345.247,-79.23
1345.262,-72.79
1345.277,-210.0
1345.292,-210.0
1345.307,-79.6
1345.322,-75.66
1345.337,-210.0
1345.352,-210.0
1345.367,-73.87
1345.382,-210.0
1345.397,-81.77
1345.412,-70.51
1345.427,-73.33
1345.442,-210.0
1345.457,-75.94
1345.472,-74.53
1345.487,-73.76
1345.502,-74.2
1345.517,-72.78
1345.532,-70.27
1345.547,-210.0
1345.562,-79.34
1345.577,-210.0
1345.592,-210.0
1345.607,-210.0
1345.622,-70.14
1345.637,-210.0
1345.652,-210.0
1345.667,-210.0
1345.682,-77.98
1345.697,-210.0
1345.712,-210.0
1345.727,-73.71
1345.742,-210.0
1345.757,-210.0
1345.772,-210.0
1345.787,-73.71
1345.802,-210.0
1345.817,-77.48
1345.832,-71.77
1345.847,-72.45
1345.862,-71.32
1345.877,-72.18
1345.892,-85.02
1345.907,-210.0
1345.922,-81.8
1345.937,-71.35
1345.952,-210.0
1345.967,-210.0
1345.982,-71.45
1345.997,-74.89
1346.012,-210.0
1346.027,-210.0
1346.042,-78.69
1346.057,-210.0
1346.072,-210.0
1346.087,-210.0
1346.102,-70.07
1346.117,-210.0
1346.132,-210.0
1346.147,-210.0
1346.162,-210.0
1346.177,-210.0
1346.192,-78.07
1346.207,-79.14
1346.222,-210.0
1346.237,-68.94
1346.252,-70.03
1346.267,-210.0
1346.282,-210.0
1346.297,-71.23
1346.312,-74.36
1346.327,-210.0
1346.342,-210.0
1346.357,-74.93
1346.372,-210.0
1346.387,-210.0
1346.402,-70.27
1346.417,-70.0
1346.432,-210.0
1346.447,-74.58
1346.462,-67.88
1346.477,-70.87
1346.492,-71.92
1346.507,-66.87
1346.522,-69.57
1346.537,-210.0
1346.552,-69.86
1346.567,-66.79
1346.582,-69.36
1346.597,-81.29
1346.612,-68.76
1346.627,-71.66
1346.642,-210.0
1346.657,-71.4
1346.672,-68.58
1346.687,-72.95
1346.702,-82.76
1346.717,-67.75
1346.732,-68.77
1346.747,-210.0
1346.762,-75.6
1346.777,-68.93
1346.792,-73.35
1346.807,-210.0
1346.822,-72.06
1346.837,-70.66
1346.852,-210.0
1346.867,-210.0
1346.882,-71.83
1346.897,-74.1
1346.912,-69.13
1346.927,-67.42
1346.942,-75.57
1346.957,-210.0
1346.972,-68.89
1346.987,-68.72
1347.002,-210.0
1347.017,-70.35
1347.032,-66.55
1347.047,-67.35
1347.062,-74.95
1347.077,-67.46
1347.092,-64.73
1347.107,-70.52
1347.122,-71.22
1347.137,-65.47
1347.152,-66.09
1347.167,-71.55
1347.182,-67.95
1347.197,-68.57
1347.212,-68.97
1347.227,-68.02
1347.242,-67.34
1347.257,-68.17
1347.272,-69.92
1347.287,-66.54
1347.302,-65.59
1347.317,-66.85
1347.332,-63.96
1347.347,-63.37
1347.362,-65.09
1347.377,-66.08
1347.392,-63.56
1347.407,-64.85
1347.422,-68.57
1347.437,-65.68
1347.452,-64.09
1347.467,-66.57
1347.482,-68.17
1347.497,-67.4
1347.512,-67.67
1347.527,-69.38
1347.542,-67.11
1347.557,-66.95
1347.572,-66.8
1347.587,-68.17
1347.602,-65.57
1347.617,-64.89
1347.632,-67.67
1347.647,-64.13
1347.662,-63.85
1347.677,-66.93
1347.692,-65.66
1347.707,-63.51
1347.722,-64.18
1347.737,-66.28
1347.752,-64.29
1347.767,-62.92
1347.782,-64.49
1347.797,-65.37
1347.812,-63.13
1347.827,-63.07
1347.842,-65.02
1347.857,-64.01
1347.872,-63.8
1347.887,-64.87
1347.902,-63.64
1347.917,-62.85
1347.932,-64.63
1347.947,-64.43
1347.962,-62.45
1347.977,-62.95
1347.992,-65.23
1348.007,-63.5
1348.022,-62.61
1348.037,-64.04
1348.052,-65.11
1348.067,-63.62
1348.082,-63.22
1348.097,-65.43
1348.112,-63.37
1348.127,-63.3
1348.142,-65.88
1348.157,-64.73
1348.172,-63.45
1348.187,-64.33
1348.202,-64.48
1348.217,-63.97
1348.232,-63.01
1348.247,-64.46
1348.262,-65.01
1348.277,-62.85
1348.292,-63.35
1348.307,-64.67
1348.322,-64.68
1348.337,-68.25
1348.352,-67.99
1348.367,-65.36
1348.382,-65.29
1348.397,-68.13
1348.412,-67.81
1348.427,-65.06
1348.442,-66.48
1348.457,-68.19
1348.472,-66.31
1348.487,-64.78
1348.502,-66.62
1348.517,-67.26
1348.532,-64.61
1348.547,-65.1
1348.562,-66.76
1348.577,-67.79
1348.592,-68.35
1348.607,-67.09
1348.622,-68.76
1348.637,-67.27
1348.652,-72.72
1348.667,-72.01
1348.682,-66.74
1348.697,-69.24
1348.712,-210.0
1348.727,-71.92
1348.742,-68.66
1348.757,-72.52
1348.772,-79.19
1348.787,-67.75
1348.802,-68.42
1348.817,-73.2
1348.832,-70.67
1348.847,-67.67
1348.862,-68.63
1348.877,-66.22
1348.892,-66.04
1348.907,-69.36
1348.922,-70.53
1348.937,-68.2
1348.952,-71.61
1348.967,-78.41
1348.982,-74.59
1348.997,-69.56
1349.012,-74.48
1349.027,-210.0
1349.042,-71.54
1349.057,-74.5
1349.072,-210.0
1349.087,-76.66
1349.102,-69.91
1349.117,-210.0
1349.132,-210.0
1349.147,-67.83
1349.162,-74.16
1349.177,-210.0
1349.193,-67.27
1349.207,-67.73
1349.222,-210.0
1349.237,-84.49
1349.252,-66.8
1349.267,-67.93
1349.282,-210.0
1349.297,-70.37
1349.313,-66.87
1349.328,-71.26
1349.343,-65.93
1349.357,-65.8
1349.372,-67.37
1349.387,-68.91
1349.402,-65.84
1349.417,-65.21
1349.432,-67.24
1349.448,-66.32
1349.463,-66.17
1349.478,-70.02
1349.492,-69.7
1349.507,-65.13
1349.522,-66.0
1349.537,-72.83
1349.552,-67.24
1349.568,-66.26
1349.583,-70.72
1349.598,-67.89
1349.613,-66.17
1349.628,-67.25
1349.642,-72.68
1349.657,-66.22
1349.672,-66.45
1349.688,-68.05
1349.703,-64.75
1349.718,-63.5
1349.733,-66.62
1349.748,-66.13
1349.763,-63.9
1349.777,-64.36
1349.792,-67.04
1349.807,-65.41
1349.823,-64.07
1349.838,-66.02
1349.853,-66.93
1349.868,-65.74
1349.883,-68.74
1349.898,-74.06
1349.913,-67.01
1349.927,-71.34
1349.943,-74.58
1349.958,-65.54
1349.973,-66.04
1349.988,-71.67
1350.003,-68.58
1350.018,-64.84
1350.033,-66.2
1350.048,-72.26
1350.063,-66.22
1350.078,-64.82
1350.093,-68.53
1350.108,-72.86
1350.123,-66.45
1350.138,-65.79
1350.153,-72.37
1350.168,-66.61
1350.183,-69.62
1350.198,-78.07
1350.213,-70.77
1350.228,-66.17
1350.243,-70.87
1350.258,-75.35
1350.273,-71.32
1350.288,-68.45
1350.303,-73.22
1350.318,-73.4
1350.333,-67.2
1350.348,-71.01
1350.363,-70.46
1350.378,-70.99
1350.393,-70.93
1350.408,-69.14
1350.423,-69.87
1350.438,-73.64
1350.453,-70.05
1350.468,-67.7
1350.483,-66.87
1350.498,-69.07
1350.513,-72.22
1350.528,-70.13
1350.543,-68.52
1350.558,-75.0
1350.573,-70.95
1350.588,-68.31
1350.603,-67.92
1350.618,-69.35
1350.633,-68.17
1350.648,-68.45
1350.663,-67.47
1350.678,-66.88
1350.693,-67.53
1350.708,-90.69
1350.723,-210.0
1350.738,-68.64
1350.753,-75.52
1350.768,-210.0
1350.783,-71.88
1350.798,-71.65
1350.813,-210.0
1350.828,-210.0
1350.843,-70.33
1350.858,-69.77
1350.873,-210.0
1350.888,-71.62
1350.903,-66.3
1350.918,-74.55
1350.933,-68.2
1350.948,-69.18
1350.963,-210.0
1350.978,-72.07
1350.993,-67.0
1351.008,-71.94
1351.023,-210.0
1351.038,-73.17
1351.053,-68.53
1351.068,-210.0
1351.083,-210.0
1351.098,-71.04
1351.113,-71.66
1351.128,-210.0
1351.143,-75.28
1351.158,-68.16
1351.173,-210.0
1351.188,-73.65
1351.203,-67.24
1351.218,-68.41
1351.233,-210.0
1351.248,-67.5
1351.263,-75.18
1351.278,-210.0
1351.293,-72.48
1351.308,-70.17
1351.323,-210.0
1351.338,-210.0
1351.353,-74.4
1351.368,-210.0
1351.383,-210.0
1351.398,-76.12
1351.413,-82.06
1351.428,-210.0
1351.443,-210.0
1351.458,-73.3
1351.473,-84.58
1351.488,-210.0
1351.503,-72.35
1351.518,-68.55
1351.533,-210.0
1351.548,-68.88
1351.563,-67.78
1351.578,-210.0
1351.593,-210.0
1351.608,-68.32
1351.623,-67.69
1351.638,-210.0
1351.653,-69.4
1351.668,-68.62
1351.683,-210.0
1351.698,-210.0
1351.713,-72.76
1351.728,-210.0
1351.743,-210.0
1351.758,-72.88
1351.773,-70.31
1351.788,-210.0
1351.803,-210.0
1351.818,-70.94
1351.833,-76.64
1351.848,-210.0
1351.863,-210.0
1351.878,-83.88
1351.893,-210.0
1351.908,-210.0
1351.923,-69.22
1351.938,-210.0
1351.953,-73.24
1351.968,-67.72
1351.983,-70.59
1351.998,-210.0
1352.013,-69.13
1352.028,-66.61
1352.043,-71.37
1352.058,-72.89
1352.073,-65.57
1352.088,-67.68
1352.103,-67.33
1352.118,-65.73
1352.133,-64.51
1352.148,-67.21
1352.163,-66.3
1352.178,-64.38
1352.193,-64.85
1352.208,-66.84
1352.223,-65.98
1352.238,-64.55
1352.253,-67.37
1352.268,-64.86
1352.283,-65.17
1352.298,-66.85
1352.313,-65.32
1352.328,-63.99
1352.343,-65.37
1352.358,-65.56
1352.373,-64.77
1352.388,-62.99
1352.403,-64.07
1352.418,-64.74
1352.433,-62.83
1352.448,-63.24
1352.463,-63.06
1352.478,-63.83
1352.493,-64.06
1352.508,-64.39
1352.523,-64.07
1352.538,-63.96
1352.553,-68.32
1352.568,-67.58
1352.583,-63.78
1352.598,-64.16
1352.613,-66.8
1352.628,-66.2
1352.643,-63.93
1352.658,-65.15
1352.673,-65.86
1352.688,-64.64
1352.703,-64.48
1352.718,-64.03
1352.733,-62.84
1352.748,-63.07
1352.763,-64.36
1352.778,-63.71
1352.793,-62.57
1352.808,-64.08
1352.823,-64.1
1352.838,-63.76
1352.853,-62.98
1352.868,-64.81
1352.883,-64.75
1352.898,-62.94
1352.913,-63.9
1352.928,-64.14
1352.943,-64.08
1352.958,-64.87
1352.973,-64.49
1352.988,-63.89
1353.003,-63.6
1353.018,-64.41
1353.033,-64.61
1353.048,-63.5
1353.063,-64.17
1353.078,-65.69
1353.093,-63.23
1353.108,-63.89
1353.123,-65.49
1353.138,-64.5
1353.153,-64.76
1353.168,-66.02
1353.183,-66.04
1353.198,-64.99
1353.213,-65.56
1353.228,-66.32
1353.243,-65.97
1353.258,-65.75
1353.273,-66.67
1353.288,-64.48
1353.303,-63.33
1353.318,-65.41
1353.333,-65.46
1353.348,-63.32
1353.363,-64.45
1353.378,-63.72
1353.393,-64.57
1353.408,-65.79
1353.423,-65.21
1353.438,-64.96
1353.453,-63.67
1353.468,-66.57
1353.483,-67.01
1353.498,-64.21
1353.513,-64.05
1353.528,-67.58
1353.543,-66.47
1353.558,-63.65
1353.573,-64.7
1353.588,-64.76
1353.603,-65.11
1353.618,-65.15
1353.633,-64.74
1353.648,-64.76
1353.663,-64.78
1353.678,-65.59
1353.693,-64.88
1353.708,-63.41
1353.723,-64.99
1353.738,-65.46
1353.753,-64.2
1353.768,-63.94
1353.783,-64.16
1353.798,-64.94
1353.813,-65.12
1353.828,-64.47
1353.843,-64.8
1353.858,-64.98
1353.873,-63.99
1353.888,-63.12
1353.903,-63.34
1353.918,-63.94
1353.933,-65.12
1353.948,-64.46
1353.963,-64.39
1353.978,-64.71
1353.993,-65.21
1354.008,-65.68
1354.023,-65.46
1354.038,-64.72
1354.053,-66.4
1354.068,-66.98
1354.083,-65.07
1354.098,-65.98
1354.113,-67.13
1354.128,-67.12
1354.143,-67.06
1354.158,-66.49
1354.173,-65.95
1354.188,-65.71
1354.203,-66.81
1354.218,-67.49
1354.233,-66.19
1354.248,-65.75
1354.263,-65.72
1354.278,-66.59
1354.293,-66.83
1354.308,-67.19
1354.323,-66.23
1354.338,-65.11
1354.353,-66.4
1354.368,-66.33
1354.383,-67.86
1354.398,-67.17
1354.413,-65.79
1354.428,-66.94
1354.443,-67.11
1354.458,-68.13
1354.473,-67.0
1354.488,-67.94
1354.503,-66.66
1354.518,-69.68
1354.533,-65.25
1354.548,-65.38
1354.563,-69.36
1354.578,-66.05
1354.593,-66.34
1354.608,-66.78
1354.623,-66.41
1354.638,-66.67
1354.653,-66.84
1354.668,-67.11
1354.683,-66.81
1354.698,-67.15
1354.713,-77.41
1354.728,-69.18
1354.743,-67.45
1354.758,-71.07
1354.773,-75.63
1354.788,-70.82
1354.803,-68.86
1354.818,-67.15
1354.833,-67.17
1354.848,-66.37
1354.863,-67.24
1354.878,-65.01
1354.893,-64.74
1354.908,-67.77
1354.923,-66.81
1354.938,-64.95
1354.953,-65.76
1354.968,-65.51
1354.983,-65.0
1354.998,-65.02
1355.013,-64.44
1355.028,-64.24
1355.043,-63.9
1355.058,-64.37
1355.073,-63.12
1355.088,-62.36
1355.103,-62.9
1355.118,-64.02
1355.133,-62.46
1355.148,-62.79
1355.163,-63.17
1355.178,-62.57
1355.193,-62.31
1355.208,-62.82
1355.223,-62.72
1355.238,-62.69
1355.253,-64.21
1355.268,-65.05
1355.283,-63.18
1355.298,-63.05
1355.313,-65.22
1355.328,-64.73
1355.343,-64.39
1355.358,-65.56
1355.373,-65.42
1355.388,-63.97
1355.403,-64.22
1355.418,-65.24
1355.433,-64.07
1355.448,-64.77
1355.463,-68.97
1355.478,-65.54
1355.493,-63.9
1355.508,-67.41
1355.523,-66.2
1355.538,-65.82
1355.553,-66.96
1355.568,-67.51
1355.583,-66.93
1355.598,-66.33
1355.613,-68.06
1355.628,-65.21
1355.643,-63.8
1355.658,-66.43
1355.673,-67.72
1355.688,-64.19
1355.703,-64.99
1355.718,-65.06
1355.733,-64.33
1355.748,-64.61
1355.763,-65.21
1355.778,-64.53
1355.793,-64.49
1355.808,-65.86
1355.823,-65.53
1355.838,-64.05
1355.853,-66.3
1355.868,-68.67
1355.883,-68.09
1355.898,-68.15
1355.913,-69.89
1355.928,-69.29
1355.943,-68.24
1355.958,-67.88
1355.973,-68.26
1355.988,-66.73
1356.003,-70.07
1356.018,-78.18
1356.033,-67.22
1356.048,-68.67
1356.063,-85.04
1356.078,-74.69
1356.093,-210.0
1356.108,-210.0
1356.123,-210.0
1356.138,-210.0
1356.153,-210.0
1356.168,-210.0
1356.183,-69.39
1356.198,-83.12
1356.213,-210.0
1356.228,-73.59
1356.243,-69.5
1356.258,-69.93
1356.273,-69.12
1356.288,-66.49
1356.303,-66.02
1356.318,-65.63
1356.333,-66.18
1356.348,-65.31
1356.363,-65.91
1356.378,-64.12
1356.393,-63.7
1356.408,-65.68
1356.423,-65.84
1356.438,-64.51
1356.453,-64.41
1356.468,-64.34
1356.483,-64.3
1356.498,-64.6
1356.513,-64.48
1356.528,-64.84
1356.543,-64.43
1356.558,-66.73
1356.573,-64.29
1356.588,-63.16
1356.603,-63.97
1356.618,-64.48
1356.633,-63.76
1356.648,-64.08
1356.663,-64.63
1356.678,-63.7
1356.693,-63.51
1356.708,-63.89
1356.723,-64.13
1356.738,-63.84
1356.753,-65.17
1356.768,-65.91
1356.783,-63.85
1356.798,-64.12
1356.813,-66.45
1356.828,-65.29
1356.843,-65.61
1356.858,-65.73
1356.873,-64.99
1356.888,-63.58
1356.903,-64.33
1356.918,-64.84
1356.933,-63.06
1356.948,-64.03
1356.963,-66.43
1356.978,-64.29
1356.993,-64.12
1357.008,-64.18
1357.023,-64.4
1357.038,-63.88
1357.053,-65.0
1357.068,-65.15
1357.083,-64.72
1357.098,-64.27
1357.113,-64.83
1357.128,-63.13
1357.143,-62.84
1357.158,-64.66
1357.173,-64.78
1357.188,-64.59
1357.203,-64.56
1357.219,-64.37
1357.233,-64.02
1357.248,-63.98
1357.263,-63.98
1357.278,-63.79
1357.293,-64.0
1357.308,-68.39
1357.323,-66.98
1357.339,-64.07
1357.354,-66.04
1357.369,-67.66
1357.383,-67.43
1357.398,-68.35
1357.413,-71.33
1357.428,-70.23
1357.443,-67.88
1357.458,-67.79
1357.474,-66.75
1357.489,-65.56
1357.504,-67.23
1357.518,-70.99
1357.533,-65.57
1357.548,-65.9
1357.563,-64.78
1357.578,-66.24
1357.594,-66.54
1357.609,-67.62
1357.624,-68.23
1357.639,-68.58
1357.654,-71.77
1357.668,-76.61
1357.683,-67.9
1357.698,-70.96
1357.714,-210.0
1357.729,-77.85
1357.744,-69.7
1357.759,-67.2
1357.774,-69.17
1357.789,-69.55
1357.803,-73.38
1357.818,-70.19
1357.833,-67.82
1357.849,-68.83
1357.864,-72.62
1357.879,-69.97
1357.894,-69.65
1357.909,-74.92
1357.924,-210.0
1357.939,-210.0
1357.953,-210.0
1357.969,-210.0
1357.984,-75.12
1357.999,-74.58
1358.014,-210.0
1358.029,-210.0
1358.044,-210.0
1358.059,-210.0
1358.074,-210.0
1358.089,-70.85
1358.104,-72.68
1358.119,-210.0
1358.134,-210.0
1358.149,-210.0
1358.164,-210.0
1358.179,-210.0
1358.194,-79.07
1358.209,-210.0
1358.224,-210.0
1358.239,-210.0
1358.254,-210.0
1358.269,-210.0
1358.284,-75.55
1358.299,-210.0
1358.314,-83.48
1358.329,-71.62
1358.344,-73.65
1358.359,-73.69
1358.374,-72.43
1358.389,-68.53
1358.404,-68.67
1358.419,-69.6
1358.434,-64.96
1358.449,-65.22
1358.464,-70.72
1358.479,-68.21
1358.494,-67.63
1358.509,-68.33
1358.524,-68.32
1358.539,-67.26
1358.554,-68.27
1358.569,-75.15
1358.584,-71.68
1358.599,-70.84
1358.614,-210.0
1358.629,-69.07
1358.644,-67.09
1358.659,-73.9
1358.674,-70.59
1358.689,-69.05
1358.704,-68.55
1358.719,-70.12
1358.734,-67.9
1358.749,-69.59
1358.764,-210.0
1358.779,-72.59
1358.794,-69.44
1358.809,-71.32
1358.824,-73.07
1358.839,-70.82
1358.854,-69.54
1358.869,-73.29
1358.884,-70.69
1358.899,-68.84
1358.914,-210.0
1358.929,-68.28
1358.944,-66.3
1358.959,-71.51
1358.974,-68.74
1358.989,-66.78
1359.004,-69.12
1359.019,-70.68
1359.034,-67.18
1359.049,-66.51
1359.064,-74.21
1359.079,-66.78
1359.094,-65.98
1359.109,-75.38
1359.124,-68.89
1359.139,-66.49
1359.154,-68.43
1359.169,-70.55
1359.184,-67.05
1359.199,-68.09
1359.214,-77.07
1359.229,-66.44
1359.244,-65.63
1359.259,-71.2
1359.274,-68.34
1359.289,-67.52
1359.304,-69.81
1359.319,-68.82
1359.334,-66.87
1359.349,-66.69
1359.364,-69.68
1359.379,-65.45
1359.394,-66.91
1359.409,-210.0
1359.424,-67.31
1359.439,-69.13
1359.454,-210.0
1359.469,-210.0
1359.484,-72.91
1359.499,-210.0
1359.514,-210.0
1359.529,-210.0
1359.544,-210.0
1359.559,-210.0
1359.574,-210.0
1359.589,-74.23
1359.604,-210.0
1359.619,-210.0
1359.634,-210.0
1359.649,-210.0
1359.664,-210.0
1359.679,-210.0
1359.694,-210.0
1359.709,-210.0
1359.724,-210.0
1359.739,-210.0
1359.754,-210.0
1359.769,-210.0
1359.784,-78.52
1359.799,-210.0
1359.814,-210.0
1359.829,-210.0
1359.844,-78.98
1359.859,-210.0
1359.874,-71.47
1359.889,-69.73
1359.904,-210.0
1359.919,-71.13
1359.934,-69.61
1359.949,-210.0
1359.964,-210.0
1359.979,-67.95
1359.994,-72.04
1360.009,-75.52
1360.024,-67.11
1360.039,-67.68
1360.054,-210.0
1360.069,-67.37
1360.084,-68.75
1360.099,-210.0
1360.114,-72.41
1360.129,-66.55
1360.144,-68.23
1360.159,-210.0
1360.174,-66.44
1360.189,-68.68
1360.204,-70.14
1360.219,-66.04
1360.234,-67.61
1360.249,-210.0
1360.264,-69.01
1360.279,-66.23
1360.294,-70.02
1360.309,-210.0
1360.324,-70.04
1360.339,-210.0
1360.354,-210.0
1360.369,-72.89
1360.384,-210.0
1360.399,-210.0
1360.414,-73.66
1360.429,-82.11
1360.444,-210.0
1360.459,-73.28
1360.474,-69.43
1360.489,-210.0
1360.504,-72.85
1360.519,-67.73
1360.534,-67.94
1360.549,-78.21
1360.564,-66.47
1360.579,-66.52
1360.594,-71.05
1360.609,-71.49
1360.624,-66.81
1360.639,-79.69
1360.654,-81.63
1360.669,-66.43
1360.684,-68.86
1360.699,-69.36
1360.714,-65.14
1360.729,-66.4
1360.744,-69.89
1360.759,-65.13
1360.774,-64.32
1360.789,-68.7
1360.804,-65.83
1360.819,-63.42
1360.834,-65.51
1360.849,-67.97
1360.864,-65.89
1360.879,-67.07
1360.894,-69.04
1360.909,-64.38
1360.924,-64.74
1360.939,-69.95
1360.954,-66.35
1360.969,-64.71
1360.984,-66.5
1360.999,-68.12
1361.014,-66.78
1361.029,-210.0
1361.044,-72.45
1361.059,-65.18
1361.074,-66.67
1361.089,-73.49
1361.104,-67.73
1361.119,-65.41
1361.134,-69.94
1361.149,-76.08
1361.164,-66.16
1361.179,-73.11
1361.194,-70.24
1361.209,-68.17
1361.224,-73.4
1361.239,-210.0
1361.254,-72.66
1361.269,-67.9
1361.284,-73.03
1361.299,-67.83
1361.314,-65.37
1361.329,-70.68
1361.344,-65.89
1361.359,-64.33
1361.374,-65.85
1361.389,-70.29
1361.404,-66.08
1361.419,-65.49
1361.434,-67.49
1361.449,-64.89
1361.464,-66.71
1361.479,-72.08
1361.494,-65.94
1361.509,-65.31
1361.524,-69.69
1361.539,-79.3
1361.554,-66.47
1361.569,-72.3
1361.584,-76.21
1361.599,-69.12
1361.614,-66.64
1361.629,-71.31
1361.644,-66.28
1361.659,-64.62
1361.674,-68.44
1361.689,-69.83
1361.704,-65.59
1361.719,-69.97
1361.734,-69.39
1361.749,-65.44
1361.764,-68.13
1361.779,-210.0
1361.794,-67.67
1361.809,-68.37
1361.824,-210.0
1361.839,-70.24
1361.854,-67.26
1361.869,-77.8
1361.884,-210.0
1361.899,-68.28
1361.914,-210.0
1361.929,-210.0
1361.944,-74.65
1361.959,-71.94
1361.974,-76.11
1361.989,-70.69
1362.004,-70.57
1362.019,-210.0
1362.034,-68.61
1362.049,-66.87
1362.064,-210.0
1362.079,-210.0
1362.094,-69.06
1362.109,-75.91
1362.124,-210.0
1362.139,-70.87
1362.154,-75.35
1362.169,-210.0
1362.184,-70.87
1362.199,-67.88
1362.214,-210.0
1362.229,-72.06
1362.244,-70.7
1362.259,-71.72
1362.274,-71.56
1362.289,-73.41
1362.304,-210.0
1362.319,-210.0
1362.334,-72.1
1362.349,-210.0
1362.364,-210.0
1362.379,-210.0
1362.394,-210.0
1362.409,-210.0
1362.424,-210.0
1362.439,-210.0
1362.454,-210.0
1362.469,-210.0
1362.484,-210.0
1362.499,-210.0
1362.514,-210.0
1362.529,-210.0
1362.544,-210.0
1362.559,-210.0
1362.574,-210.0
1362.589,-210.0
1362.604,-210.0
1362.619,-210.0
1362.634,-210.0
1362.649,-210.0
1362.664,-210.0
1362.679,-210.0
1362.694,-210.0
1362.709,-210.0
1362.724,-210.0
1362.739,-210.0
1362.754,-210.0
1362.769,-210.0
1362.784,-210.0
1362.799,-77.9
1362.814,-84.31
1362.829,-210.0
1362.844,-210.0
1362.859,-80.02
1362.874,-70.66
1362.889,-73.02
1362.904,-73.85
1362.919,-70.11
1362.934,-67.65
1362.949,-66.05
1362.964,-67.91
1362.979,-210.0
1362.994,-210.0
1363.009,-69.88
1363.024,-70.2
1363.039,-210.0
1363.054,-210.0
1363.069,-79.7
1363.084,-210.0
1363.099,-210.0
1363.114,-72.4
1363.129,-210.0
1363.144,-210.0
1363.159,-67.85
1363.174,-70.01
1363.189,-79.67
1363.204,-210.0
1363.219,-210.0
1363.234,-210.0
1363.249,-70.67
1363.264,-69.3
1363.279,-210.0
1363.294,-210.0
1363.309,-67.41
1363.324,-72.15
1363.339,-76.88
1363.354,-70.89
1363.369,-74.19
1363.384,-70.59
1363.399,-65.81
1363.414,-68.14
1363.429,-73.54
1363.444,-67.02
1363.459,-65.73
1363.474,-65.76
1363.489,-64.86
1363.504,-64.12
1363.519,-65.91
1363.534,-65.79
1363.549,-64.0
1363.564,-65.65
1363.579,-67.58
1363.594,-65.45
1363.609,-65.7
1363.624,-66.4
1363.639,-65.61
1363.654,-65.59
1363.669,-66.24
1363.684,-64.22
1363.699,-63.95
1363.714,-66.46
1363.729,-65.78
1363.744,-65.02
1363.759,-65.29
1363.774,-65.26
1363.789,-63.84
1363.804,-65.58
1363.819,-68.23
1363.834,-65.13
1363.849,-64.88
1363.864,-70.63
1363.879,-67.88
1363.894,-67.56
1363.909,-77.44
1363.924,-70.34
1363.939,-69.36
1363.954,-210.0
1363.969,-210.0
1363.984,-67.1
1363.999,-68.03
1364.014,-69.09
1364.029,-67.48
1364.044,-68.7
1364.059,-70.35
1364.074,-66.33
1364.089,-65.69
1364.104,-71.87
1364.119,-68.87
1364.134,-65.2
1364.149,-68.22
1364.164,-69.96
1364.179,-66.11
1364.194,-67.98
1364.209,-68.72
1364.224,-64.84
1364.239,-64.99
1364.254,-68.01
1364.269,-66.65
1364.284,-66.36
1364.299,-67.13
1364.314,-67.96
1364.329,-65.44
1364.344,-69.21
1364.359,-69.13
1364.374,-64.81
1364.389,-65.1
1364.404,-68.49
1364.419,-65.79
1364.434,-65.69
1364.449,-68.48
1364.464,-67.4
1364.479,-68.75
1364.494,-210.0
1364.509,-71.03
1364.524,-67.67
1364.539,-69.38
1364.554,-69.5
1364.569,-66.08
1364.584,-67.08
1364.599,-68.28
1364.614,-65.03
1364.629,-65.75
1364.644,-69.9
1364.659,-66.33
1364.674,-68.46
1364.689,-72.36
1364.704,-68.13
1364.719,-66.4
1364.734,-73.28
1364.749,-66.95
1364.764,-65.78
1364.779,-69.73
1364.794,-68.64
1364.809,-67.81
1364.824,-68.16
1364.839,-68.76
1364.854,-68.31
1364.869,-65.87
1364.884,-68.89
1364.899,-65.73
1364.914,-66.09
1364.929,-66.7
1364.944,-66.02
1364.959,-64.57
1364.974,-66.13
1364.989,-66.08
1365.004,-64.94
1365.019,-67.11
1365.034,-66.98
1365.049,-65.69
1365.064,-67.21
1365.079,-67.96
1365.094,-66.52
1365.109,-65.62
1365.124,-67.78
1365.139,-66.37
1365.154,-68.18
1365.169,-66.27
1365.184,-68.69
1365.199,-66.34
1365.214,-68.17
1365.229,-67.72
1365.245,-67.91
1365.259,-67.62
1365.274,-66.7
1365.289,-65.44
1365.304,-65.91
1365.319,-65.44
1365.334,-67.01
1365.349,-66.11
1365.365,-65.58
1365.38,-65.25
1365.395,-70.2
1365.409,-64.96
1365.424,-65.04
1365.439,-64.92
1365.454,-64.71
1365.469,-64.05
1365.484,-64.28
1365.5,-64.18
1365.515,-63.26
1365.53,-64.3
1365.544,-65.59
1365.559,-64.22
1365.574,-64.52
1365.589,-64.31
1365.604,-64.47
1365.62,-64.44
1365.635,-66.93
1365.65,-64.36
1365.665,-64.71
1365.68,-64.07
1365.694,-63.93
1365.709,-64.2
1365.724,-64.32
1365.74,-63.89
1365.755,-63.18
1365.77,-64.59
1365.785,-64.79
1365.8,-64.22
1365.815,-63.95
1365.83,-64.68
1365.844,-65.15
1365.859,-64.32
1365.875,-65.98
1365.89,-64.38
1365.905,-64.55
1365.92,-63.79
1365.935,-64.9
1365.95,-65.17
1365.965,-64.29
1365.979,-63.27
1365.995,-63.61
1366.01,-64.29
1366.025,-64.33
1366.04,-65.29
1366.055,-63.59
1366.07,-62.81
1366.085,-63.22
1366.1,-63.26
1366.115,-64.33
1366.13,-63.36
1366.145,-63.44
1366.16,-62.42
1366.175,-64.14
1366.19,-64.22
1366.205,-63.56
1366.22,-63.36
1366.235,-62.84
1366.25,-63.25
1366.265,-63.62
1366.28,-64.39
1366.295,-63.58
1366.31,-63.2
1366.325,-64.66
1366.34,-64.07
1366.355,-65.0
1366.37,-63.85
1366.385,-64.15
1366.4,-63.39
1366.415,-65.67
1366.43,-65.69
1366.445,-64.62
1366.46,-64.37
1366.475,-64.16
1366.49,-65.37
1366.505,-65.27
1366.52,-66.11
1366.535,-65.14
1366.55,-64.09
1366.565,-66.39
1366.58,-67.35
1366.595,-70.64
1366.61,-67.16
1366.625,-67.53
1366.64,-65.56
1366.655,-67.63
1366.67,-67.56
1366.685,-65.95
1366.7,-65.27
1366.715,-64.85
1366.73,-66.85
1366.745,-66.4
1366.76,-66.99
1366.775,-65.51
1366.79,-64.59
1366.805,-67.55
1366.82,-69.77
1366.835,-74.21
1366.85,-68.58
1366.865,-70.42
1366.88,-67.99
1366.895,-70.61
1366.91,-71.45
1366.925,-69.29
1366.94,-66.69
1366.955,-65.48
1366.97,-69.13
1366.985,-72.52
1367.0,-69.6
1367.015,-67.75
1367.03,-68.25
1367.045,-68.92
1367.06,-75.45
1367.075,-210.0
1367.09,-69.6
1367.105,-74.32
1367.12,-70.99
1367.135,-71.62
1367.15,-72.25
1367.165,-74.62
1367.18,-66.87
1367.195,-66.25
1367.21,-69.44
1367.225,-69.32
1367.24,-69.03
1367.255,-68.64
1367.27,-67.96
1367.285,-66.54
1367.3,-70.7
1367.315,-81.85
1367.33,-66.52
1367.345,-66.18
1367.36,-67.23
1367.375,-68.32
1367.39,-69.13
1367.405,-67.58
1367.42,-65.78
1367.435,-65.05
1367.45,-67.52
1367.465,-67.85
1367.48,-69.06
1367.495,-66.44
1367.51,-65.72
1367.525,-65.87
1367.54,-67.34
1367.555,-69.6
1367.57,-65.79
1367.585,-65.4
1367.6,-65.06
1367.615,-66.35
1367.63,-67.34
1367.645,-71.09
1367.66,-66.11
1367.675,-65.2
1367.69,-67.29
1367.705,-68.5
1367.72,-70.61
1367.735,-67.93
1367.75,-65.79
1367.765,-65.07
1367.78,-66.56
1367.795,-68.47
1367.81,-64.38
1367.825,-64.72
1367.84,-64.09
1367.855,-62.57
1367.87,-63.72
1367.885,-65.0
1367.9,-63.09
1367.915,-62.98
1367.93,-64.85
1367.945,-65.24
1367.96,-66.2
1367.975,-68.64
1367.99,-65.88
1368.005,-65.84
1368.02,-70.97
1368.035,-69.97
1368.05,-65.76
1368.065,-69.5
1368.08,-65.74
1368.095,-65.81
1368.11,-69.43
1368.125,-70.84
1368.14,-65.19
1368.155,-65.73
1368.17,-68.71
1368.185,-67.35
1368.2,-71.08
1368.215,-77.79
1368.23,-66.75
1368.245,-67.34
1368.26,-78.01
1368.275,-74.45
1368.29,-79.48
1368.305,-210.0
1368.32,-70.06
1368.335,-72.81
1368.35,-210.0
1368.365,-210.0
1368.38,-68.26
1368.395,-82.67
1368.41,-74.5
1368.425,-70.31
1368.44,-210.0
1368.455,-210.0
1368.47,-69.76
1368.485,-70.92
1368.5,-82.22
1368.515,-69.69
1368.53,-72.05
1368.545,-210.0
1368.56,-68.18
1368.575,-69.43
1368.59,-210.0
1368.605,-210.0
1368.62,-81.13
1368.635,-210.0
1368.65,-73.71
1368.665,-80.83
1368.68,-210.0
1368.695,-210.0
1368.71,-72.09
1368.725,-78.98
1368.74,-74.56
1368.755,-74.3
1368.77,-210.0
1368.785,-210.0
1368.8,-71.01
1368.815,-210.0
1368.83,-210.0
1368.845,-210.0
1368.86,-210.0
1368.875,-210.0
1368.89,-210.0
1368.905,-210.0
1368.92,-210.0
1368.935,-210.0
1368.95,-72.88
1368.965,-210.0
1368.98,-70.15
1368.995,-70.69
1369.01,-210.0
1369.025,-71.26
1369.04,-66.91
1369.055,-71.19
1369.07,-76.14
1369.085,-69.32
1369.1,-210.0
1369.115,-210.0
1369.13,-67.34
1369.145,-70.16
1369.16,-210.0
1369.175,-74.08
1369.19,-72.45
1369.205,-87.38
1369.22,-68.69
1369.235,-68.29
1369.25,-210.0
1369.265,-74.81
1369.28,-68.32
1369.295,-69.63
1369.31,-67.4
1369.325,-66.37
1369.34,-71.64
1369.355,-68.15
1369.37,-65.62
1369.385,-68.85
1369.4,-68.84
1369.415,-69.0
1369.43,-68.43
1369.445,-68.35
1369.46,-65.34
1369.475,-66.32
1369.49,-67.73
1369.505,-67.25
1369.52,-67.15
1369.535,-66.41
1369.55,-66.68
1369.565,-65.77
1369.58,-68.19
1369.595,-64.69
1369.61,-64.02
1369.625,-64.11
1369.64,-64.38
1369.655,-63.49
1369.67,-65.43
1369.685,-63.55
1369.7,-63.26
1369.715,-65.03
1369.73,-65.96
1369.745,-65.64
1369.76,-65.33
1369.775,-64.69
1369.79,-63.55
1369.805,-65.29
1369.82,-67.95
1369.835,-63.88
1369.85,-63.84
1369.865,-63.96
1369.88,-62.4
1369.895,-63.31
1369.91,-64.35
1369.925,-62.66
1369.94,-62.43
1369.955,-64.15
1369.97,-64.13
1369.985,-63.42
1370.0,-64.57
